time (s)	coil I (A)	last det (V)	int current (uC)
1184.471496	1.466027	0.875374	642.119690
1184.472452	1.913137	0.875374	2471.078857
1184.473375	1.863530	0.875374	4191.117187
1184.474281	1.805255	0.875374	5826.678223
1184.475223	1.746200	0.875374	7471.598633
1184.476149	1.689327	0.875374	9035.916016
1184.477072	1.636007	0.875374	10545.950195
1184.477976	1.264281	0.875374	11688.860352
1184.478930	0.107728	0.875374	11791.632812
1184.479829	0.090919	0.875374	11873.369141
1184.480729	0.091011	0.875374	11955.279297
1184.481615	0.090989	0.875374	12035.895508
1184.482546	0.091084	0.875374	12120.694336
1184.483449	0.091033	0.875374	12202.896484
1184.484347	0.091003	0.875374	12284.617187
1184.485280	0.091018	0.875374	12369.537109
1184.486192	0.091154	0.875374	12452.668945
1184.487099	0.090967	0.875374	12535.175781
1185.518027	1.460248	0.892861	638.128296
1185.518967	1.913771	0.892861	2437.072754
1185.519879	1.864911	0.892861	4137.871094
1185.520789	1.806907	0.892861	5782.156250
1185.521698	1.748383	0.892861	7371.436035
1185.522644	1.691774	0.892861	8971.853516
1185.523558	1.638728	0.892861	10469.650391
1185.524459	1.338080	0.892861	11675.259766
1185.525414	0.122637	0.892861	11792.377930
1185.526313	0.090930	0.892861	11874.124023
1185.527216	0.091022	0.892861	11956.316406
1185.528101	0.091073	0.892861	12036.916016
1185.529031	0.091135	0.892861	12121.671875
1185.529937	0.091047	0.892861	12204.161133
1185.530836	0.091044	0.892861	12286.009766
1185.531749	0.091077	0.892861	12369.163086
1185.532676	0.091139	0.892861	12453.648437
1185.533577	0.091018	0.892861	12535.655273
1186.566620	1.483927	0.855257	670.734985
1186.567514	1.914335	0.855257	2382.150391
1186.568410	1.867247	0.855257	4055.203857
1186.569354	1.807357	0.855257	5761.349121
1186.570264	1.749159	0.855257	7353.083984
1186.571161	1.694967	0.855257	8873.469727
1186.572109	1.640299	0.855257	10428.472656
1186.573021	1.355057	0.855257	11664.285156
1186.573927	0.130353	0.855257	11782.384766
1186.574813	0.090886	0.855257	11862.910156
1186.575757	0.091150	0.855257	11948.956055
1186.576664	0.091000	0.855257	12031.493164
1186.577554	0.091025	0.855257	12112.505859
1186.578486	0.091051	0.855257	12197.365234
1186.579392	0.091150	0.855257	12279.947266
1186.580292	0.091003	0.855257	12361.850586
1186.581181	0.091080	0.855257	12442.821289
1186.582131	0.091128	0.855257	12529.392578
1187.612878	1.469007	0.917893	644.894287
1187.613782	1.914573	0.917893	2375.667969
1187.614674	1.867060	0.917893	4041.085937
1187.615642	1.806680	0.917893	5789.951660
1187.616552	1.748291	0.917893	7380.896484
1187.617458	1.693400	0.917893	8915.116211
1187.618412	1.639365	0.917893	10479.070312
1187.619321	1.318872	0.917893	11677.924805
1187.620236	0.121476	0.917893	11789.075195
1187.621127	0.090930	0.917893	11870.093750
1187.622059	0.091121	0.917893	11955.018555
1187.622961	0.091036	0.917893	12037.133789
1187.623863	0.091051	0.917893	12119.261719
1187.624747	0.091040	0.917893	12199.741211
1187.625696	0.091113	0.917893	12286.208008
1187.626608	0.091018	0.917893	12369.216797
1187.627505	0.091007	0.917893	12450.850586
1187.628439	0.091128	0.917893	12535.963867
1188.664654	1.468008	0.822631	647.391418
1188.665548	1.913137	0.822631	2357.736084
1188.666516	1.863995	0.822631	4162.083496
1188.667427	1.805801	0.822631	5807.167969
1188.668323	1.747599	0.822631	7373.016602
1188.669280	1.690591	0.822631	8990.912109
1188.670192	1.638021	0.822631	10484.787109
1188.671089	1.331510	0.822631	11679.151367
1188.672035	0.124940	0.822631	11797.344727
1188.672935	0.090970	0.822631	11879.217773
1188.673833	0.091000	0.822631	11960.935547
1188.674721	0.091073	0.822631	12041.808594
1188.675667	0.091124	0.822631	12128.011719
1188.676567	0.090978	0.822631	12209.891602
1188.677470	0.091014	0.822631	12292.077148
1188.678360	0.091040	0.822631	12373.102539
1188.679311	0.091128	0.822631	12459.765625
1188.680213	0.091047	0.822631	12541.890625
1189.706964	1.482440	0.906356	662.650757
1189.707857	1.912998	0.906356	2370.958008
1189.708837	1.863073	0.906356	4196.769043
1189.709751	1.804354	0.906356	5845.948730
1189.710656	1.746515	0.906356	7426.544922
1189.711589	1.690832	0.906356	9004.091797
1189.712505	1.637684	0.906356	10504.210937
1189.713409	1.311054	0.906356	11689.403320
1189.714305	0.122424	0.906356	11799.095703
1189.715248	0.091099	0.906356	11885.001953
1189.716149	0.091014	0.906356	11967.005859
1189.717045	0.091062	0.906356	12048.597656
1189.717942	0.090963	0.906356	12130.191406
1189.718868	0.091040	0.906356	12214.494141
1189.719780	0.090894	0.906356	12297.388672
1189.720676	0.091000	0.906356	12378.924805
1189.721607	0.091069	0.906356	12463.709961
1189.722506	0.091051	0.906356	12545.564453
1190.759166	1.526829	0.848848	743.565491
1190.760089	1.911998	0.848848	2508.339844
1190.761028	1.861571	0.848848	4256.354980
1190.761922	1.802637	0.848848	5867.912109
1190.762887	1.742593	0.848848	7549.514160
1190.763796	1.687775	0.848848	9083.701172
1190.764690	1.636132	0.848848	10546.402344
1190.765625	1.225657	0.848848	11692.391602
1190.766526	0.108168	0.848848	11789.850586
1190.767446	0.090930	0.848848	11873.505859
1190.768342	0.090970	0.848848	11955.015625
1190.769278	0.090948	0.848848	12040.143555
1190.770188	0.090956	0.848848	12122.913086
1190.771078	0.091051	0.848848	12203.948242
1190.772012	0.091095	0.848848	12289.031250
1190.772912	0.090970	0.848848	12370.904297
1190.773809	0.091047	0.848848	12452.574219
1190.774698	0.090996	0.848848	12533.469727
1191.802577	1.479954	0.886629	655.619446
1191.803491	1.914009	0.886629	2405.023437
1191.804392	1.865676	0.886629	4085.997803
1191.805344	1.805874	0.886629	5805.189941
1191.806269	1.747035	0.886629	7421.197266
1191.807165	1.692297	0.886629	8937.496094
1191.808108	1.638757	0.886629	10482.843750
1191.809010	1.311207	0.886629	11665.552734
1191.809927	0.119725	0.886629	11775.340820
1191.810814	0.090956	0.886629	11856.018555
1191.811753	0.091077	0.886629	11941.539062
1191.812663	0.091058	0.886629	12024.402344
1191.813556	0.091011	0.886629	12105.674805
1191.814464	0.091102	0.886629	12188.395508
1191.815382	0.091014	0.886629	12271.946289
1191.816292	0.090985	0.886629	12354.743164
1191.817184	0.091080	0.886629	12435.986328
1191.818122	0.091036	0.886629	12521.378906
1192.854663	1.522529	0.850431	756.697083
1192.855583	1.912145	0.850431	2515.870361
1192.856488	1.862600	0.850431	4201.523437
1192.857383	1.804530	0.850431	5816.577637
1192.858328	1.745098	0.850431	7465.694824
1192.859242	1.689910	0.850431	9010.272461
1192.860147	1.637739	0.850431	10492.426758
1192.861064	1.293951	0.850431	11678.980469
1192.861986	0.115616	0.850431	11785.579102
1192.862893	0.090916	0.850431	11868.039062
1192.863781	0.091007	0.850431	11948.853516
1192.864721	0.091124	0.850431	12034.510742
1192.865621	0.091069	0.850431	12116.472656
1192.866516	0.091018	0.850431	12197.933594
1192.867405	0.091073	0.850431	12278.897461
1192.868334	0.091084	0.850431	12363.514648
1192.869243	0.091051	0.850431	12446.280273
1192.870141	0.091040	0.850431	12528.034180
1193.898379	1.546077	0.879878	780.768738
1193.899299	1.911738	0.879878	2539.568115
1193.900194	1.862809	0.879878	4206.782227
1193.901146	1.802904	0.879878	5923.146973
1193.902054	1.744178	0.879878	7506.860840
1193.902953	1.689463	0.879878	9025.687500
1193.903850	1.637747	0.879878	10494.746094
1193.904805	1.245483	0.879878	11684.182617
1193.905718	0.109255	0.879878	11783.932617
1193.906621	0.090934	0.879878	11866.045898
1193.907517	0.091011	0.879878	11947.591797
1193.908457	0.091113	0.879878	12033.238281
1193.909364	0.091014	0.879878	12115.788086
1193.910256	0.091018	0.879878	12196.976562
1193.911197	0.091047	0.879878	12282.652344
1193.912100	0.091077	0.879878	12364.894531
1193.912994	0.091000	0.879878	12446.248047
1193.913883	0.091003	0.879878	12527.150391
1194.948319	1.498846	0.847974	678.977417
1194.949244	1.912991	0.847974	2448.493652
1194.950147	1.864914	0.847974	4132.511230
1194.951075	1.806233	0.847974	5808.695312
1194.951988	1.747595	0.847974	7404.250000
1194.952896	1.692433	0.847974	8940.978516
1194.953791	1.640416	0.847974	10409.151367
1194.954745	1.323091	0.847974	11671.379883
1194.955657	0.122695	0.847974	11783.278320
1194.956549	0.090970	0.847974	11864.423828
1194.957465	0.091077	0.847974	11947.849609
1194.958383	0.091073	0.847974	12031.455078
1194.959291	0.090978	0.847974	12114.062500
1194.960194	0.090981	0.847974	12196.218750
1194.961132	0.091033	0.847974	12281.607422
1194.962039	0.091040	0.847974	12364.180664
1194.962941	0.090974	0.847974	12446.239258
1194.963832	0.091069	0.847974	12527.381836
1195.994186	1.465499	0.896281	643.354187
1195.995173	1.911588	0.896281	2530.091797
1195.996083	1.861948	0.896281	4224.464844
1195.996981	1.803893	0.896281	5844.360352
1195.997921	1.744977	0.896281	7484.638672
1195.998831	1.689119	0.896281	9021.736328
1195.999746	1.636362	0.896281	10519.007812
1196.000644	1.304000	0.896281	11690.000000
1196.001574	0.112870	0.896281	11794.968750
1196.002482	0.090901	0.896281	11877.506836
1196.003381	0.091044	0.896281	11959.355469
1196.004307	0.091095	0.896281	12043.708984
1196.005204	0.091047	0.896281	12125.378906
1196.006106	0.091011	0.896281	12207.470703
1196.006995	0.090978	0.896281	12288.349609
1196.007927	0.091073	0.896281	12373.229492
1196.008827	0.091033	0.896281	12455.159180
1196.009733	0.091029	0.896281	12537.631836
1197.044095	1.491636	0.841681	733.884766
1197.045015	1.911969	0.841681	2492.896240
1197.045922	1.862695	0.841681	4182.360840
1197.046821	1.804816	0.841681	5804.890137
1197.047775	1.744296	0.841681	7468.948242
1197.048679	1.689573	0.841681	8996.322266
1197.049584	1.637673	0.841681	10478.416992
1197.050476	1.281500	0.841681	11621.515625
1197.051429	0.114170	0.841681	11730.319336
1197.052326	0.090908	0.841681	11811.864258
1197.053221	0.091014	0.841681	11893.322266
1197.054154	0.091110	0.841681	11978.327148
1197.055059	0.091132	0.841681	12060.800781
1197.055965	0.091033	0.841681	12143.276367
1197.056857	0.091088	0.841681	12224.526367
1197.057794	0.091161	0.841681	12309.944336
1197.058698	0.091073	0.841681	12392.274414
1197.059600	0.091029	0.841681	12474.382812
1198.089064	1.498656	0.894231	681.888428
1198.089965	1.913529	0.894231	2405.978027
1198.090881	1.865361	0.894231	4114.648926
1198.091814	1.806086	0.894231	5799.727539
1198.092714	1.747928	0.894231	7372.863281
1198.093611	1.693802	0.894231	8892.204102
1198.094552	1.639838	0.894231	10435.291016
1198.095479	1.330181	0.894231	11668.368164
1198.096386	0.122911	0.894231	11779.848633
1198.097272	0.090945	0.894231	11860.425781
1198.098213	0.091157	0.894231	11946.205078
1198.099117	0.090985	0.894231	12028.456055
1198.100007	0.091044	0.894231	12109.485352
1198.100911	0.090963	0.894231	12191.715820
1198.101827	0.091036	0.894231	12275.105469
1198.102732	0.090970	0.894231	12357.433594
1198.103619	0.091073	0.894231	12438.215820
1198.104558	0.091117	0.894231	12523.774414
1199.139539	1.465170	0.841399	640.279175
1199.140485	1.912591	0.841399	2449.590820
1199.141395	1.864611	0.841399	4146.386719
1199.142313	1.805695	0.841399	5804.014648
1199.143209	1.747987	0.841399	7370.210937
1199.144148	1.691444	0.841399	8958.476562
1199.145055	1.639003	0.841399	10445.051758
1199.145962	1.350172	0.841399	11669.658203
1199.146859	0.129181	0.841399	11785.533203
1199.147817	0.091014	0.841399	11872.724609
1199.148724	0.091022	0.841399	11955.281250
1199.149619	0.091062	0.841399	12036.782227
1199.150541	0.091073	0.841399	12120.751953
1199.151443	0.091154	0.841399	12202.972656
1199.152341	0.090967	0.841399	12284.661133
1199.153230	0.091058	0.841399	12365.612305
1199.154159	0.091088	0.841399	12450.232422
1199.155061	0.091091	0.841399	12532.396484
1200.184924	1.489237	0.872873	670.156616
1200.185830	1.913082	0.872873	2403.409180
1200.186764	1.864720	0.872873	4145.058105
1200.187655	1.806277	0.872873	5754.450684
1200.188604	1.746420	0.872873	7411.802734
1200.189517	1.691462	0.872873	8956.107422
1200.190412	1.639728	0.872873	10423.664062
1200.191355	1.315192	0.872873	11663.889648
1200.192281	0.117367	0.872873	11772.571289
1200.193201	0.091000	0.872873	11856.291016
1200.194090	0.091011	0.872873	11937.199219
1200.195047	0.091099	0.872873	12024.380859
1200.195946	0.091011	0.872873	12106.199219
1200.196871	0.091069	0.872873	12190.438477
1200.197757	0.091080	0.872873	12271.135742
1200.198691	0.091007	0.872873	12356.136719
1200.199599	0.091066	0.872873	12438.824219
1200.200490	0.091044	0.872873	12519.944336
1201.234136	1.479302	0.858810	650.892822
1201.235059	1.913042	0.858810	2416.630615
1201.235964	1.865310	0.858810	4104.736328
1201.236894	1.806793	0.858810	5785.053711
1201.237819	1.747112	0.858810	7401.131836
1201.238733	1.691561	0.858810	8947.218750
1201.239635	1.639460	0.858810	10426.011719
1201.240591	1.296255	0.858810	11665.231445
1201.241503	0.117565	0.858810	11772.450195
1201.242404	0.090905	0.858810	11854.355469
1201.243290	0.091018	0.858810	11934.997070
1201.244228	0.091011	0.858810	12020.365234
1201.245139	0.090989	0.858810	12103.255859
1201.246035	0.091102	0.858810	12184.883789
1201.246968	0.091066	0.858810	12269.847656
1201.247871	0.091194	0.858810	12352.195312
1201.248770	0.090992	0.858810	12433.997070
1201.249659	0.091007	0.858810	12514.902344
1202.281177	1.491863	0.867861	675.813843
1202.282085	1.913273	0.867861	2413.065430
1202.282983	1.866141	0.867861	4088.860352
1202.283941	1.805230	0.867861	5818.270508
1202.284851	1.746903	0.867861	7407.952148
1202.285753	1.692352	0.867861	8934.454102
1202.286648	1.639534	0.867861	10401.836914
1202.287586	1.340603	0.867861	11659.322266
1202.288506	0.125519	0.867861	11774.799805
1202.289402	0.090842	0.867861	11856.194336
1202.290331	0.091040	0.867861	11940.770508
1202.291236	0.090981	0.867861	12023.108398
1202.292147	0.090938	0.867861	12105.952148
1202.293035	0.091044	0.867861	12186.798828
1202.293975	0.091066	0.867861	12272.400391
1202.294876	0.091011	0.867861	12354.401367
1202.295780	0.090908	0.867861	12436.582031
1202.296699	0.090927	0.867861	12520.143555
1203.327953	1.478877	0.852364	653.663635
1203.328857	1.913492	0.852364	2383.460693
1203.329756	1.866819	0.852364	4061.730957
1203.330693	1.807749	0.852364	5755.591797
1203.331612	1.748265	0.852364	7362.247559
1203.332526	1.693158	0.852364	8909.793945
1203.333465	1.639699	0.852364	10449.470703
1203.334366	1.351227	0.852364	11666.925781
1203.335272	0.129694	0.852364	11784.427734
1203.336154	0.090853	0.852364	11864.560547
1203.337102	0.091110	0.852364	11950.932617
1203.338002	0.090970	0.852364	12032.805664
1203.338904	0.091000	0.852364	12114.887695
1203.339792	0.090978	0.852364	12195.675781
1203.340742	0.091088	0.852364	12282.208984
1203.341646	0.090945	0.852364	12364.422852
1203.342538	0.090978	0.852364	12445.575195
1203.343464	0.091000	0.852364	12529.840820
1204.377299	1.473717	0.875825	651.382935
1204.378218	1.912906	0.875825	2409.343750
1204.379125	1.865303	0.875825	4101.173340
1204.380066	1.806196	0.875825	5800.804199
1204.380969	1.747760	0.875825	7379.031250
1204.381868	1.693352	0.875825	8901.354492
1204.382765	1.641343	0.875825	10373.638672
1204.383716	1.353182	0.875825	11660.514648
1204.384618	0.128423	0.875825	11776.352539
1204.385521	0.090890	0.875825	11858.425781
1204.386410	0.090912	0.875825	11939.246094
1204.387358	0.091040	0.875825	12025.551758
1204.388265	0.090985	0.875825	12108.075195
1204.389160	0.091025	0.875825	12189.542969
1204.390086	0.091040	0.875825	12273.845703
1204.390986	0.091073	0.875825	12355.811523
1204.391880	0.090930	0.875825	12437.103516
1204.392768	0.091014	0.875825	12517.923828
1205.423431	1.472714	0.848243	645.048523
1205.424401	1.911698	0.848243	2499.395508
1205.425307	1.862948	0.848243	4187.226562
1205.426205	1.805292	0.848243	5808.378418
1205.427149	1.745713	0.848243	7456.331543
1205.428057	1.689877	0.848243	8990.739258
1205.428967	1.637560	0.848243	10480.918945
1205.429863	1.318202	0.848243	11662.027344
1205.430821	0.111434	0.848243	11768.781250
1205.431728	0.090813	0.848243	11851.148437
1205.432615	0.090941	0.848243	11931.813477
1205.433565	0.090948	0.848243	12018.214844
1205.434465	0.091036	0.848243	12100.147461
1205.435364	0.090956	0.848243	12181.916992
1205.436248	0.090967	0.848243	12262.332031
1205.437175	0.091066	0.848243	12346.750000
1205.438081	0.090963	0.848243	12429.162109
1205.438976	0.090934	0.848243	12510.547852
1206.472271	1.466979	0.872675	642.536682
1206.473213	1.912269	0.872675	2443.894531
1206.474128	1.864120	0.872675	4149.564453
1206.475039	1.805607	0.872675	5794.472168
1206.475935	1.747980	0.872675	7360.662109
1206.476881	1.691085	0.872675	8960.428711
1206.477790	1.638611	0.872675	10449.925781
1206.478691	1.356647	0.872675	11672.264648
1206.479590	0.131334	0.872675	11790.333984
1206.480531	0.090941	0.872675	11875.909180
1206.481441	0.090952	0.872675	11958.675781
1206.482334	0.090985	0.872675	12039.925781
1206.483257	0.090978	0.872675	12123.898437
1206.484161	0.091033	0.872675	12206.192383
1206.485062	0.090985	0.872675	12288.169922
1206.485951	0.090945	0.872675	12369.019531
1206.486895	0.091029	0.872675	12454.951172
1206.487794	0.091025	0.872675	12536.783203
1207.518545	1.474288	0.852139	654.583984
1207.519447	1.913580	0.852139	2380.633301
1207.520353	1.865625	0.852139	4070.889404
1207.521306	1.805533	0.852139	5791.562500
1207.522212	1.747665	0.852139	7374.946777
1207.523108	1.693136	0.852139	8891.996094
1207.524040	1.639614	0.852139	10420.116211
1207.524954	1.362246	0.852139	11665.208984
1207.525854	0.132766	0.852139	11784.698242
1207.526795	0.090956	0.852139	11870.288086
1207.527698	0.091003	0.852139	11952.463867
1207.528607	0.090978	0.852139	12035.163086
1207.529496	0.091036	0.852139	12116.094727
1207.530447	0.091044	0.852139	12202.677734
1207.531353	0.090970	0.852139	12285.096680
1207.532249	0.091044	0.852139	12366.671875
1207.533133	0.090981	0.852139	12447.099609
1207.534060	0.091047	0.852139	12531.500977
1208.567895	1.479994	0.863591	668.957214
1208.568789	1.913229	0.863591	2379.383545
1208.569735	1.864805	0.863591	4143.488770
1208.570653	1.805588	0.863591	5801.019043
1208.571554	1.747555	0.863591	7375.566406
1208.572451	1.692649	0.863591	8893.872070
1208.573393	1.638860	0.863591	10437.677734
1208.574311	1.338311	0.863591	11666.247070
1208.575218	0.124750	0.863591	11779.395508
1208.576142	0.090938	0.863591	11863.421875
1208.577056	0.091088	0.863591	11946.675781
1208.577960	0.090952	0.863591	12028.896484
1208.578852	0.091029	0.863591	12110.094727
1208.579793	0.090978	0.863591	12195.705078
1208.580696	0.090948	0.863591	12277.832031
1208.581587	0.090959	0.863591	12358.876953
1208.582479	0.090967	0.863591	12440.019531
1208.583406	0.091040	0.863591	12524.414062
1209.612509	1.480089	0.860401	663.079895
1209.613405	1.912060	0.860401	2376.285889
1209.614383	1.862205	0.860401	4197.521973
1209.615286	1.803992	0.860401	5826.526367
1209.616183	1.746841	0.860401	7393.442383
1209.617133	1.690419	0.860401	8999.339844
1209.618038	1.637131	0.860401	10480.943359
1209.618963	1.285470	0.860401	11670.002930
1209.619865	0.117495	0.860401	11775.983398
1209.620803	0.091007	0.860401	11861.347656
1209.621714	0.091011	0.860401	11944.258789
1209.622606	0.091051	0.860401	12025.476562
1209.623558	0.091047	0.860401	12112.153320
1209.624458	0.091066	0.860401	12194.112305
1209.625355	0.090992	0.860401	12275.732422
1209.626238	0.091022	0.860401	12356.104492
1209.627174	0.091018	0.860401	12441.297852
1209.628065	0.090978	0.860401	12522.359375
1210.664529	1.467704	0.859104	650.192810
1210.665428	1.913492	0.859104	2370.422607
1210.666380	1.863658	0.859104	4144.625488
1210.667290	1.805138	0.859104	5787.300781
1210.668200	1.747163	0.859104	7377.219238
1210.669096	1.692140	0.859104	8893.376953
1210.670057	1.637747	0.859104	10467.251953
1210.670964	1.327650	0.859104	11671.430664
1210.671860	0.125050	0.859104	11783.475586
1210.672800	0.090996	0.859104	11869.011719
1210.673699	0.091058	0.859104	11950.873047
1210.674594	0.090974	0.859104	12032.294922
1210.675482	0.091033	0.859104	12113.131836
1210.676412	0.091091	0.859104	12197.846680
1210.677311	0.091022	0.859104	12279.674805
1210.678219	0.091003	0.859104	12362.305664
1210.679108	0.091022	0.859104	12443.223633
1210.680062	0.091165	0.859104	12530.194336
1211.707355	1.487197	0.856433	673.700378
1211.708255	1.912863	0.856433	2395.276855
1211.709186	1.864962	0.856433	4131.556641
1211.710104	1.805786	0.856433	5789.268555
1211.711023	1.747053	0.856433	7394.810547
1211.711917	1.692546	0.856433	8907.947266
1211.712850	1.638940	0.856433	10437.079102
1211.713755	1.350670	0.856433	11659.435547
1211.714665	0.128888	0.856433	11776.723633
1211.715585	0.090923	0.856433	11860.373047
1211.716475	0.091000	0.856433	11941.363281
1211.717427	0.090967	0.856433	12027.963867
1211.718328	0.090897	0.856433	12109.862305
1211.719217	0.091025	0.856433	12190.784180
1211.720161	0.091073	0.856433	12276.756836
1211.721066	0.091029	0.856433	12359.137695
1211.721971	0.091029	0.856433	12441.518555
1211.722867	0.091000	0.856433	12523.054687
1212.760157	1.507346	0.841738	694.886597
1212.761069	1.912463	0.841738	2439.053223
1212.761965	1.864922	0.841738	4110.023437
1212.762917	1.804102	0.841738	5827.528320
1212.763825	1.746409	0.841738	7413.267578
1212.764730	1.691671	0.841738	8944.230469
1212.765632	1.639175	0.841738	10422.765625
1212.766577	1.320282	0.841738	11670.431641
1212.767490	0.121392	0.841738	11781.261719
1212.768387	0.090970	0.841738	11862.862305
1212.769320	0.091073	0.841738	11947.833008
1212.770221	0.091040	0.841738	12029.860352
1212.771126	0.091040	0.841738	12112.251953
1212.772016	0.091022	0.841738	12193.261719
1212.772966	0.091091	0.841738	12279.798828
1212.773874	0.091102	0.841738	12362.519531
1212.774771	0.090996	0.841738	12444.142578
1212.775670	0.091069	0.841738	12526.013672
1213.802749	1.542396	0.862081	744.977356
1213.803668	1.911361	0.862081	2501.518066
1213.804581	1.862366	0.862081	4201.857910
1213.805479	1.803219	0.862081	5821.148437
1213.806443	1.743530	0.862081	7501.911621
1213.807349	1.688723	0.862081	9031.894531
1213.808251	1.636739	0.862081	10508.233398
1213.809187	1.268767	0.862081	11695.799805
1213.810100	0.112734	0.862081	11798.726562
1213.810997	0.090875	0.862081	11880.241211
1213.811881	0.091062	0.862081	11960.740234
1213.812811	0.091190	0.862081	12045.546875
1213.813714	0.091091	0.862081	12127.802734
1213.814621	0.090985	0.862081	12210.326172
1213.815514	0.091025	0.862081	12291.612305
1213.816460	0.091150	0.862081	12377.839844
1213.817365	0.090985	0.862081	12460.181641
1213.818254	0.091036	0.862081	12541.113281
1214.855241	1.463430	0.848292	639.518982
1214.856188	1.911405	0.848292	2449.619385
1214.857111	1.862761	0.848292	4168.948242
1214.858017	1.804512	0.848292	5803.835937
1214.858913	1.747284	0.848292	7369.402344
1214.859873	1.689617	0.848292	8991.434570
1214.860787	1.636967	0.848292	10487.622070
1214.861683	1.330726	0.848292	11679.953125
1214.862609	0.124515	0.848292	11795.253906
1214.863516	0.090952	0.848292	11877.747070
1214.864411	0.091003	0.848292	11959.195312
1214.865305	0.090981	0.848292	12040.533203
1214.866246	0.091084	0.848292	12126.243164
1214.867160	0.091044	0.848292	12209.457031
1214.868059	0.091003	0.848292	12291.269531
1214.868948	0.091033	0.848292	12372.197266
1214.869897	0.091084	0.848292	12458.635742
1214.870797	0.091055	0.848292	12540.584961
1215.898310	1.455513	0.860719	631.692505
1215.899284	1.911427	0.860719	2493.422363
1215.900197	1.862032	0.860719	4193.458008
1215.901098	1.804003	0.860719	5818.864258
1215.902007	1.746006	0.860719	7405.983398
1215.902944	1.689935	0.860719	8989.453125
1215.903853	1.636912	0.860719	10477.406250
1215.904757	1.312299	0.860719	11663.724609
1215.905704	0.117968	0.860719	11775.439453
1215.906616	0.091040	0.860719	11858.467773
1215.907520	0.091025	0.860719	11940.754883
1215.908413	0.090996	0.860719	12022.014648
1215.909362	0.091135	0.860719	12108.501953
1215.910267	0.091033	0.860719	12190.886719
1215.911154	0.091051	0.860719	12271.649414
1215.912072	0.091011	0.860719	12355.197266
1215.912990	0.091139	0.860719	12438.862305
1215.913883	0.090963	0.860719	12520.092773
1216.949972	1.483004	0.845307	659.936829
1216.950875	1.912734	0.845307	2387.135986
1216.951768	1.865636	0.845307	4053.148926
1216.952721	1.805914	0.845307	5774.185059
1216.953638	1.747419	0.845307	7376.568359
1216.954534	1.692843	0.845307	8893.355469
1216.955474	1.639490	0.845307	10434.475586
1216.956372	1.358712	0.845307	11654.599609
1216.957280	0.131393	0.845307	11773.904297
1216.958168	0.090923	0.845307	11854.643555
1216.959101	0.091113	0.845307	11939.652344
1216.959999	0.091080	0.845307	12021.442383
1216.960911	0.090952	0.845307	12104.390625
1216.961830	0.090996	0.845307	12188.015625
1216.962717	0.091066	0.845307	12268.791016
1216.963668	0.091000	0.845307	12355.332031
1216.964563	0.091022	0.845307	12436.796875
1216.965452	0.091025	0.845307	12517.718750
1217.993559	1.482572	0.875926	662.709656
1217.994469	1.912643	0.875926	2403.214600
1217.995365	1.864893	0.875926	4074.158203
1217.996336	1.803600	0.875926	5825.453613
1217.997252	1.745314	0.875926	7424.161133
1217.998149	1.690935	0.875926	8940.929687
1217.999078	1.638384	0.875926	10462.988281
1217.999987	1.320059	0.875926	11662.921875
1218.000896	0.122117	0.875926	11773.925781
1218.001785	0.090948	0.875926	11854.779297
1218.002726	0.091051	0.875926	11940.458008
1218.003645	0.091029	0.875926	12024.113281
1218.004544	0.090959	0.875926	12105.885742
1218.005476	0.091029	0.875926	12190.724609
1218.006380	0.091080	0.875926	12273.061523
1218.007286	0.091003	0.875926	12355.510742
1218.008173	0.090985	0.875926	12436.214844
1218.009122	0.091091	0.875926	12522.660156
1219.045724	1.482422	0.839276	659.677734
1219.046650	1.912090	0.839276	2430.272949
1219.047547	1.864801	0.839276	4102.999512
1219.048484	1.805753	0.839276	5794.990234
1219.049392	1.746815	0.839276	7381.098633
1219.050310	1.691078	0.839276	8933.507812
1219.051214	1.638959	0.839276	10415.126953
1219.052152	1.326288	0.839276	11659.184570
1219.053067	0.121571	0.839276	11770.421875
1219.053972	0.090894	0.839276	11852.680664
1219.054860	0.091069	0.839276	11933.549805
1219.055796	0.091176	0.839276	12018.889648
1219.056706	0.090996	0.839276	12101.696289
1219.057600	0.091062	0.839276	12183.105469
1219.058535	0.091073	0.839276	12268.258789
1219.059431	0.091146	0.839276	12349.925781
1219.060325	0.091062	0.839276	12431.334961
1219.061213	0.091058	0.839276	12512.194336
1220.088704	1.536753	0.864554	751.472168
1220.089621	1.911266	0.864554	2504.103027
1220.090534	1.861626	0.864554	4203.767578
1220.091461	1.802670	0.864554	5874.842285
1220.092351	1.744801	0.864554	7427.715332
1220.093319	1.687467	0.864554	9061.183594
1220.094229	1.635194	0.864554	10549.209961
1220.095122	1.288085	0.864554	11699.469727
1220.096075	0.116682	0.864554	11810.667969
1220.096993	0.091014	0.864554	11894.218750
1220.097901	0.091077	0.864554	11976.916016
1220.098792	0.091047	0.864554	12058.039062
1220.099724	0.091088	0.864554	12142.932617
1220.100637	0.090992	0.864554	12226.008789
1220.101557	0.091007	0.864554	12309.735352
1220.102448	0.091113	0.864554	12390.916992
1220.103401	0.091036	0.864554	12477.674805
1220.104298	0.091058	0.864554	12559.354492
1221.140934	1.457648	0.835204	632.619080
1221.141875	1.912115	0.835204	2431.919678
1221.142798	1.863131	0.835204	4151.589844
1221.143712	1.804706	0.835204	5801.090820
1221.144604	1.747233	0.835204	7359.622070
1221.145560	1.690140	0.835204	8975.396484
1221.146472	1.637651	0.835204	10468.934570
1221.147372	1.332217	0.835204	11667.929687
1221.148303	0.125570	0.835204	11784.834961
1221.149208	0.091007	0.835204	11867.196289
1221.150113	0.090956	0.835204	11949.511719
1221.151000	0.091091	0.835204	12030.309570
1221.151935	0.091084	0.835204	12115.472656
1221.152835	0.091036	0.835204	12197.405273
1221.153746	0.091014	0.835204	12280.319336
1221.154638	0.091022	0.835204	12361.510742
1221.155578	0.091110	0.835204	12447.153320
1221.156481	0.090985	0.835204	12529.312500
1222.184140	1.461984	0.884732	635.962830
1222.185082	1.911691	0.884732	2436.775391
1222.185993	1.863779	0.884732	4134.678711
1222.186899	1.805731	0.884732	5770.670898
1222.187792	1.747903	0.884732	7331.548340
1222.188724	1.691975	0.884732	8908.468750
1222.189642	1.638995	0.884732	10413.066406
1222.190551	1.369845	0.884732	11658.255859
1222.191488	0.133491	0.884732	11783.336914
1222.192408	0.090967	0.884732	11867.026367
1222.193310	0.091047	0.884732	11949.151367
1222.194213	0.091007	0.884732	12031.331055
1222.195156	0.091113	0.884732	12117.250977
1222.196054	0.091135	0.884732	12199.090820
1222.196955	0.091084	0.884732	12281.157227
1222.197841	0.091066	0.884732	12361.841797
1222.198764	0.091014	0.884732	12445.847656
1222.199671	0.091033	0.884732	12528.414062
1223.235678	1.492775	0.815924	671.748596
1223.236587	1.912181	0.815924	2409.921387
1223.237482	1.865519	0.815924	4079.560547
1223.238431	1.805167	0.815924	5792.664062
1223.239350	1.746573	0.815924	7397.765137
1223.240249	1.691755	0.815924	8918.653320
1223.241145	1.639237	0.815924	10387.410156
1223.242097	1.328426	0.815924	11652.072266
1223.243013	0.122747	0.815924	11764.507812
1223.243909	0.090945	0.815924	11845.994141
1223.244837	0.091047	0.815924	11930.486328
1223.245739	0.091106	0.815924	12012.664062
1223.246639	0.090948	0.815924	12094.517578
1223.247528	0.091047	0.815924	12175.458984
1223.248487	0.091022	0.815924	12262.749023
1223.249386	0.091066	0.815924	12344.617187
1223.250280	0.090956	0.815924	12425.931641
1223.251165	0.091066	0.815924	12506.524414
1224.279902	1.477778	0.853432	666.478027
1224.280797	1.912386	0.853432	2378.063965
1224.281746	1.863468	0.853432	4146.495117
1224.282654	1.804830	0.853432	5785.281250
1224.283557	1.747236	0.853432	7363.035645
1224.284457	1.691942	0.853432	8885.783203
1224.285414	1.637681	0.853432	10453.043945
1224.286334	1.311031	0.853432	11659.193359
1224.287241	0.119846	0.853432	11767.893555
1224.288184	0.090959	0.853432	11853.667969
1224.289091	0.091040	0.853432	11936.241211
1224.289994	0.090985	0.853432	12018.400391
1224.290881	0.091025	0.853432	12099.139648
1224.291835	0.091088	0.853432	12186.037109
1224.292738	0.091040	0.853432	12268.246094
1224.293624	0.090956	0.853432	12348.833008
1224.294529	0.091069	0.853432	12431.250977
1224.295455	0.091099	0.853432	12515.608398
1225.330759	1.461984	0.834124	635.962830
1225.331700	1.911691	0.834124	2434.863770
1225.332623	1.863138	0.834124	4154.540527
1225.333528	1.805006	0.834124	5788.070801
1225.334420	1.747914	0.834124	7347.209961
1225.335381	1.690342	0.834124	8971.628906
1225.336297	1.637245	0.834124	10471.345703
1225.337197	1.330624	0.834124	11668.907227
1225.338138	0.120619	0.834124	11782.409180
1225.339046	0.090916	0.834124	11864.960937
1225.339945	0.090938	0.834124	11946.713867
1225.340838	0.090996	0.834124	12027.973633
1225.341790	0.091088	0.834124	12114.689453
1225.342690	0.090967	0.834124	12196.559570
1225.343590	0.091055	0.834124	12278.508789
1225.344515	0.091080	0.834124	12362.757812
1225.345424	0.091095	0.834124	12445.563477
1225.346324	0.090927	0.834124	12527.397461
1226.375122	1.479049	0.849114	655.218750
1226.376046	1.911995	0.849114	2421.901855
1226.376954	1.864376	0.849114	4114.755371
1226.377897	1.804622	0.849114	5816.513672
1226.378796	1.746654	0.849114	7386.755859
1226.379699	1.692048	0.849114	8914.675781
1226.380591	1.640394	0.849114	10377.907227
1226.381551	1.323017	0.849114	11648.003906
1226.382459	0.122377	0.849114	11759.122070
1226.383363	0.090875	0.849114	11841.273437
1226.384256	0.091003	0.849114	11922.539062
1226.385193	0.091117	0.849114	12007.916016
1226.386101	0.091014	0.849114	12090.556641
1226.387000	0.091058	0.849114	12172.417969
1226.387931	0.091128	0.849114	12257.257812
1226.388831	0.091146	0.849114	12339.289062
1226.389727	0.091029	0.849114	12420.851562
1226.390614	0.091003	0.849114	12501.571289
1227.426157	1.498868	0.837991	690.978333
1227.427056	1.912306	0.837991	2410.141357
1227.427948	1.865252	0.837991	4073.945801
1227.428895	1.804548	0.837991	5782.853027
1227.429817	1.745691	0.837991	7392.379883
1227.430744	1.690053	0.837991	8959.058594
1227.431639	1.637435	0.837991	10424.563477
1227.432616	1.258502	0.837991	11654.120117
1227.433527	0.111929	0.837991	11756.086914
1227.434416	0.090956	0.837991	11836.946289
1227.435361	0.091084	0.837991	11923.020508
1227.436257	0.091000	0.837991	12004.556641
1227.437145	0.091025	0.837991	12085.386719
1227.438066	0.091040	0.837991	12169.234375
1227.438987	0.091080	0.837991	12253.119141
1227.439895	0.091000	0.837991	12335.747070
1227.440786	0.090996	0.837991	12416.824219
1227.441728	0.091135	0.837991	12502.673828
1228.469838	1.460764	0.864647	638.353943
1228.470740	1.911881	0.864647	2362.870850
1228.471695	1.863801	0.864647	4142.800781
1228.472605	1.804351	0.864647	5784.759766
1228.473514	1.746702	0.864647	7372.511719
1228.474463	1.689983	0.864647	8976.305664
1228.475373	1.637131	0.864647	10466.095703
1228.476279	1.330309	0.864647	11671.355469
1228.477173	0.125815	0.864647	11783.833984
1228.478128	0.091044	0.864647	11870.780273
1228.479036	0.091029	0.864647	11953.434570
1228.479932	0.090978	0.864647	12034.950195
1228.480859	0.091121	0.864647	12119.418945
1228.481763	0.091073	0.864647	12201.749023
1228.482664	0.091051	0.864647	12283.786133
1228.483563	0.091091	0.864647	12365.676758
1228.484489	0.091088	0.864647	12450.023437
1228.485390	0.091033	0.864647	12532.043945
1229.521502	1.491757	0.819389	672.782227
1229.522426	1.911665	0.819389	2439.160645
1229.523321	1.864362	0.819389	4107.764160
1229.524270	1.804534	0.819389	5820.266602
1229.525181	1.745731	0.819389	7410.627930
1229.526082	1.691158	0.819389	8934.361328
1229.526977	1.639204	0.819389	10401.449219
1229.527909	1.352183	0.819389	11661.683594
1229.528815	0.127485	0.819389	11777.185547
1229.529721	0.090875	0.819389	11859.518555
1229.530610	0.091003	0.819389	11940.420898
1229.531517	0.091014	0.819389	12022.970703
1229.532453	0.091106	0.819389	12108.246094
1229.533348	0.091033	0.819389	12189.720703
1229.534237	0.091025	0.819389	12270.642578
1229.535181	0.091003	0.819389	12356.549805
1229.536089	0.090945	0.819389	12439.127930
1229.537003	0.090996	0.819389	12522.298828
1230.565464	1.483198	0.854572	667.439148
1230.566366	1.912310	0.854572	2392.342285
1230.567309	1.863292	0.854572	4149.426758
1230.568235	1.803552	0.854572	5819.516113
1230.569151	1.744995	0.854572	7417.931641
1230.570056	1.690444	0.854572	8947.784180
1230.571003	1.636293	0.854572	10497.353516
1230.571916	1.280742	0.854572	11666.670898
1230.572826	0.115419	0.854572	11771.702148
1230.573710	0.090938	0.854572	11852.090820
1230.574667	0.091113	0.854572	11939.286133
1230.575571	0.090996	0.854572	12021.546875
1230.576464	0.090956	0.854572	12102.770508
1230.577395	0.091128	0.854572	12187.610352
1230.578302	0.091150	0.854572	12270.283203
1230.579201	0.091000	0.854572	12352.091797
1230.580087	0.091080	0.854572	12432.789062
1230.581035	0.091069	0.854572	12519.123047
1231.616329	1.459706	0.823280	636.431763
1231.617260	1.911888	0.823280	2416.399902
1231.618178	1.864186	0.823280	4127.722656
1231.619078	1.805980	0.823280	5753.104980
1231.619971	1.748903	0.823280	7314.875000
1231.620912	1.691722	0.823280	8906.786133
1231.621831	1.638893	0.823280	10412.928711
1231.622740	1.371889	0.823280	11659.975586
1231.623635	0.135297	0.823280	11781.066406
1231.624589	0.091040	0.823280	11867.918945
1231.625489	0.090985	0.823280	11949.805664
1231.626380	0.091033	0.823280	12030.916016
1231.627315	0.091062	0.823280	12116.058594
1231.628218	0.091179	0.823280	12198.393555
1231.629113	0.091000	0.823280	12279.837891
1231.630000	0.091007	0.823280	12360.561523
1231.630941	0.091132	0.823280	12446.316406
1231.631842	0.091055	0.823280	12528.356445
1232.660862	1.485974	0.854250	725.155396
1232.661776	1.910966	0.854250	2471.778076
1232.662682	1.862223	0.854250	4158.952148
1232.663574	1.804823	0.854250	5768.854492
1232.664522	1.745032	0.854250	7423.144531
1232.665437	1.689218	0.854250	8968.778320
1232.666341	1.637285	0.854250	10448.883789
1232.667276	1.288260	0.854250	11653.407227
1232.668189	0.115012	0.854250	11758.413086
1232.669088	0.090879	0.854250	11840.113281
1232.669977	0.090927	0.854250	11920.947266
1232.670920	0.091095	0.854250	12006.849609
1232.671819	0.091062	0.854250	12088.714844
1232.672717	0.090978	0.854250	12170.413086
1232.673604	0.091007	0.854250	12251.136719
1232.674539	0.091102	0.854250	12336.317383
1232.675453	0.090938	0.854250	12419.434570
1232.676348	0.091044	0.854250	12500.918945
1233.711445	1.471457	0.817612	647.441284
1233.712348	1.912624	0.817612	2374.541016
1233.713243	1.866035	0.817612	4044.642578
1233.714206	1.805134	0.817612	5782.986816
1233.715124	1.746757	0.817612	7386.509277
1233.716024	1.692100	0.817612	8909.398437
1233.716945	1.638955	0.817612	10418.875977
1233.717875	1.324167	0.817612	11650.351562
1233.718801	0.120696	0.817612	11762.116211
1233.719699	0.090908	0.817612	11843.751953
1233.720626	0.091084	0.817612	11928.186523
1233.721533	0.091132	0.817612	12010.842773
1233.722437	0.090974	0.817612	12093.083008
1233.723325	0.091040	0.817612	12173.926758
1233.724273	0.091128	0.817612	12260.316406
1233.725177	0.091080	0.817612	12342.653320
1233.726068	0.091018	0.817612	12423.750000
1233.726994	0.091084	0.817612	12508.093750
1234.756172	1.462006	0.843337	638.896484
1234.757066	1.911482	0.843337	2347.761230
1234.758037	1.862578	0.843337	4156.324707
1234.758950	1.804006	0.843337	5803.382324
1234.759845	1.746921	0.843337	7366.876953
1234.760784	1.691082	0.843337	8954.802734
1234.761696	1.638043	0.843337	10448.698242
1234.762598	1.349194	0.843337	11665.671875
1234.763487	0.131085	0.843337	11782.207031
1234.764428	0.090985	0.843337	11867.824219
1234.765338	0.090985	0.843337	11950.621094
1234.766242	0.091102	0.843337	12032.977539
1234.767129	0.091040	0.843337	12113.730469
1234.768074	0.091095	0.843337	12199.815430
1234.768980	0.091025	0.843337	12282.284180
1234.769869	0.091066	0.843337	12363.241211
1234.770812	0.091073	0.843337	12449.123047
1234.771722	0.090978	0.843337	12531.913086
1235.807109	1.541393	0.814893	764.530823
1235.808030	1.910742	0.814893	2524.324463
1235.808927	1.861644	0.814893	4194.219238
1235.809828	1.802985	0.814893	5818.708496
1235.810772	1.743812	0.814893	7464.867187
1235.811685	1.688983	0.814893	9006.908203
1235.812590	1.636487	0.814893	10487.928711
1235.813528	1.276912	0.814893	11685.671875
1235.814440	0.112914	0.814893	11788.649414
1235.815346	0.090941	0.814893	11871.041992
1235.816233	0.091003	0.814893	11951.761719
1235.817176	0.091047	0.814893	12037.619141
1235.818077	0.091040	0.814893	12119.646484
1235.818971	0.091029	0.814893	12201.026367
1235.819861	0.091022	0.814893	12282.036133
1235.820810	0.091084	0.814893	12368.474609
1235.821718	0.090996	0.814893	12451.098633
1235.822617	0.091014	0.814893	12532.920898
1236.850767	1.482129	0.829512	656.583069
1236.851742	1.910398	0.829512	2519.221191
1236.852645	1.861384	0.829512	4200.051270
1236.853543	1.803581	0.829512	5819.667480
1236.854494	1.743798	0.829512	7478.019043
1236.855400	1.688170	0.829512	9007.500977
1236.856320	1.635447	0.829512	10512.112305
1236.857229	1.259388	0.829512	11656.896484
1236.858188	0.104839	0.829512	11757.436523
1236.859091	0.090908	0.829512	11839.526367
1236.859983	0.090956	0.829512	11920.659180
1236.860931	0.091128	0.829512	12007.048828
1236.861840	0.090992	0.829512	12089.760742
1236.862735	0.091022	0.829512	12171.225586
1236.863622	0.091000	0.829512	12251.942383
1236.864563	0.091095	0.829512	12337.663086
1236.865455	0.091033	0.829512	12418.864258
1236.866344	0.090959	0.829512	12499.727539
1237.902279	1.463210	0.807308	637.959778
1237.903219	1.911083	0.807308	2434.377441
1237.904158	1.862219	0.807308	4183.001465
1237.905074	1.802908	0.807308	5834.464844
1237.905971	1.745581	0.807308	7400.250977
1237.906906	1.689302	0.807308	8979.748047
1237.907820	1.636652	0.807308	10475.647461
1237.908729	1.313595	0.807308	11669.705078
1237.909628	0.121450	0.807308	11778.888672
1237.910588	0.091014	0.807308	11866.262695
1237.911490	0.091047	0.807308	11948.387695
1237.912385	0.091062	0.807308	12029.888672
1237.913314	0.091113	0.807308	12114.533203
1237.914219	0.091102	0.807308	12196.980469
1237.915114	0.091000	0.807308	12278.424805
1237.915999	0.091044	0.807308	12358.998047
1237.916938	0.091139	0.807308	12444.577148
1237.917839	0.091157	0.807308	12526.709961
1238.945860	1.455802	0.850318	630.362244
1238.946810	1.911497	0.850318	2446.283936
1238.947716	1.863461	0.850318	4134.579102
1238.948623	1.805387	0.850318	5772.065430
1238.949513	1.747603	0.850318	7327.431641
1238.950475	1.690697	0.850318	8953.881836
1238.951384	1.637765	0.850318	10442.610352
1238.952288	1.345972	0.850318	11659.369141
1238.953227	0.128448	0.850318	11779.982422
1238.954133	0.090956	0.850318	11862.388672
1238.955027	0.091000	0.850318	11943.742187
1238.955922	0.091040	0.850318	12025.222656
1238.956874	0.091124	0.850318	12111.972656
1238.957782	0.091121	0.850318	12194.709961
1238.958678	0.091058	0.850318	12276.297852
1238.959595	0.091040	0.850318	12359.781250
1238.960484	0.091077	0.850318	12440.748047
1238.961429	0.091014	0.850318	12526.756836
1239.997394	1.479031	0.806965	653.731567
1239.998305	1.912094	0.806965	2395.648926
1239.999199	1.865687	0.806965	4063.573242
1240.000146	1.805328	0.806965	5773.219238
1240.001050	1.747544	0.806965	7352.999023
1240.001952	1.692583	0.806965	8879.708984
1240.002852	1.639713	0.806965	10355.451172
1240.003806	1.349561	0.806965	11642.931641
1240.004725	0.126354	0.806965	11759.050781
1240.005620	0.090934	0.806965	11840.436523
1240.006539	0.091022	0.806965	11924.085937
1240.007443	0.090989	0.806965	12006.339844
1240.008358	0.090996	0.806965	12089.601562
1240.009252	0.091011	0.806965	12170.964844
1240.010204	0.091135	0.806965	12257.725586
1240.011103	0.091047	0.806965	12339.577148
1240.011997	0.091088	0.806965	12421.009766
1240.012889	0.091029	0.806965	12502.208008
1241.041495	1.468011	0.830813	662.073181
1241.042389	1.912313	0.830813	2371.681152
1241.043333	1.863270	0.830813	4130.608398
1241.044246	1.804677	0.830813	5778.278320
1241.045157	1.746771	0.830813	7369.586914
1241.046051	1.691440	0.830813	8881.734375
1241.047013	1.637212	0.830813	10456.732422
1241.047929	1.317931	0.830813	11663.957031
1241.048833	0.122201	0.830813	11774.426758
1241.049771	0.091025	0.830813	11859.808594
1241.050675	0.091047	0.830813	11942.115234
1241.051572	0.090989	0.830813	12023.732422
1241.052459	0.090934	0.830813	12104.390625
1241.053399	0.091110	0.830813	12190.033203
1241.054301	0.091073	0.830813	12272.180664
1241.055208	0.090996	0.830813	12354.713867
1241.056099	0.091033	0.830813	12435.824219
1241.057050	0.090996	0.830813	12522.361328
1242.092612	1.456223	0.817797	630.544617
1242.093558	1.911233	0.817797	2438.571045
1242.094488	1.861985	0.817797	4170.216797
1242.095394	1.803874	0.817797	5804.527344
1242.096291	1.745958	0.817797	7370.651855
1242.097244	1.689199	0.817797	8980.458984
1242.098146	1.637293	0.817797	10457.296875
1242.099044	1.346872	0.817797	11666.788086
1242.099992	0.128851	0.817797	11788.939453
1242.100886	0.091018	0.817797	11870.309570
1242.101787	0.091051	0.817797	11952.346680
1242.102680	0.091077	0.817797	12033.677734
1242.103620	0.091055	0.817797	12119.269531
1242.104529	0.090981	0.817797	12201.971680
1242.105429	0.091018	0.817797	12283.887695
1242.106355	0.091058	0.817797	12368.208008
1242.107251	0.091124	0.817797	12449.855469
1242.108146	0.091047	0.817797	12531.342773
1243.136510	1.527001	0.814108	736.014404
1243.137420	1.911024	0.814108	2475.046387
1243.138326	1.862699	0.814108	4162.651367
1243.139221	1.803732	0.814108	5776.991211
1243.140175	1.744211	0.814108	7440.968750
1243.141090	1.689174	0.814108	8986.562500
1243.141996	1.636783	0.814108	10469.488281
1243.142930	1.278856	0.814108	11663.940430
1243.143858	0.111544	0.814108	11767.453125
1243.144765	0.091025	0.814108	11850.012695
1243.145656	0.091047	0.814108	11931.135742
1243.146603	0.091172	0.814108	12017.475586
1243.147503	0.091132	0.814108	12099.494141
1243.148395	0.091047	0.814108	12180.708008
1243.149309	0.091110	0.814108	12263.982422
1243.150235	0.091165	0.814108	12348.400391
1243.151144	0.091055	0.814108	12431.168945
1243.152039	0.091040	0.814108	12512.649414
1244.187877	1.478097	0.797317	674.012146
1244.188773	1.911980	0.797317	2387.146240
1244.189695	1.863582	0.797317	4105.368164
1244.190643	1.802933	0.797317	5814.548828
1244.191551	1.745189	0.797317	7399.180664
1244.192451	1.690953	0.797317	8921.039062
1244.193390	1.637285	0.797317	10458.450195
1244.194308	1.307611	0.797317	11658.836914
1244.195214	0.120615	0.797317	11768.114258
1244.196101	0.090905	0.797317	11848.747070
1244.197044	0.091036	0.797317	11934.594727
1244.197941	0.090981	0.797317	12016.205078
1244.198825	0.090978	0.797317	12096.629883
1244.199763	0.091033	0.797317	12182.018555
1244.200674	0.091058	0.797317	12264.972656
1244.201582	0.090985	0.797317	12347.586914
1244.202473	0.091080	0.797317	12428.739258
1244.203396	0.091117	0.797317	12512.839844
1245.231439	1.468066	0.829975	648.885376
1245.232332	1.910966	0.829975	2355.377686
1245.233299	1.862457	0.829975	4156.374023
1245.234212	1.803699	0.829975	5803.150879
1245.235116	1.745933	0.829975	7381.474121
1245.236061	1.689401	0.829975	8977.958008
1245.236973	1.636564	0.829975	10470.503906
1245.237885	1.314082	0.829975	11668.946289
1245.238788	0.121099	0.829975	11778.298828
1245.239734	0.091033	0.829975	11864.416016
1245.240633	0.091051	0.829975	11946.270508
1245.241523	0.090992	0.829975	12027.253906
1245.242429	0.091051	0.829975	12109.746094
1245.243338	0.091157	0.829975	12192.608398
1245.244249	0.090941	0.829975	12275.456055
1245.245149	0.090992	0.829975	12357.349609
1245.246078	0.091029	0.829975	12441.916016
1245.246983	0.091102	0.829975	12524.363281
1246.283108	1.492830	0.807477	676.251770
1246.284030	1.911321	0.807477	2438.489502
1246.284931	1.863512	0.807477	4117.513672
1246.285863	1.804230	0.807477	5799.055664
1246.286755	1.746427	0.807477	7356.868652
1246.287709	1.689034	0.807477	8968.207031
1246.288642	1.636025	0.807477	10494.619141
1246.289544	1.298972	0.807477	11666.291992
1246.290495	0.108541	0.807477	11769.514648
1246.291403	0.090945	0.807477	11852.092773
1246.292294	0.091011	0.807477	11933.183594
1246.293208	0.091029	0.807477	12016.383789
1246.294141	0.090970	0.807477	12101.258789
1246.295039	0.091007	0.807477	12182.983398
1246.295931	0.090996	0.807477	12264.152344
1246.296858	0.090992	0.807477	12348.501953
1246.297771	0.090916	0.807477	12431.507812
1246.298664	0.090959	0.807477	12512.734375
1247.326930	1.477826	0.811179	653.199097
1247.327835	1.912130	0.811179	2383.676758
1247.328729	1.864768	0.811179	4050.779541
1247.329693	1.804321	0.811179	5790.145508
1247.330607	1.746193	0.811179	7386.165527
1247.331508	1.691737	0.811179	8910.420898
1247.332451	1.638289	0.811179	10455.327148
1247.333359	1.331975	0.811179	11664.760742
1247.334259	0.124893	0.811179	11777.164062
1247.335148	0.090919	0.811179	11857.991211
1247.336092	0.091198	0.811179	11944.082031
1247.336994	0.091091	0.811179	12026.246094
1247.337899	0.090970	0.811179	12108.574219
1247.338785	0.090996	0.811179	12189.196289
1247.339734	0.091044	0.811179	12275.596680
1247.340643	0.090974	0.811179	12358.291992
1247.341539	0.091011	0.811179	12439.837891
1247.342474	0.091121	0.811179	12525.036133
1248.377679	1.464181	0.818647	644.239624
1248.378581	1.911006	0.818647	2367.966797
1248.379552	1.861582	0.818647	4175.562988
1248.380467	1.802977	0.818647	5825.287109
1248.381376	1.744684	0.818647	7411.204590
1248.382317	1.688881	0.818647	9000.441406
1248.383225	1.636132	0.818647	10486.048828
1248.384126	1.317312	0.818647	11672.947266
1248.385020	0.123680	0.818647	11783.517578
1248.385974	0.091029	0.818647	11870.359375
1248.386873	0.091044	0.818647	11952.208008
1248.387767	0.090985	0.818647	12033.548828
1248.388660	0.090974	0.818647	12114.789062
1248.389605	0.091066	0.818647	12200.845703
1248.390509	0.091084	0.818647	12283.185547
1248.391402	0.091033	0.818647	12364.477539
1248.392333	0.091073	0.818647	12449.266602
1248.393234	0.091073	0.818647	12531.323242
1249.422594	1.483663	0.822051	731.446045
1249.423511	1.910277	0.822051	2483.169922
1249.424415	1.861626	0.822051	4166.080078
1249.425328	1.802838	0.822051	5812.071289
1249.426263	1.743790	0.822051	7442.515137
1249.427176	1.688174	0.822051	8983.817383
1249.428082	1.636223	0.822051	10466.235352
1249.429014	1.277508	0.822051	11656.873047
1249.429926	0.112632	0.822051	11759.593750
1249.430823	0.090912	0.822051	11841.141602
1249.431713	0.090985	0.822051	11922.118164
1249.432656	0.091066	0.822051	12007.993164
1249.433562	0.091062	0.822051	12090.495117
1249.434453	0.091007	0.822051	12171.582031
1249.435368	0.091066	0.822051	12254.907227
1249.436285	0.091058	0.822051	12338.408203
1249.437192	0.091014	0.822051	12420.958008
1249.438094	0.091044	0.822051	12503.079102
1250.472535	1.478192	0.808004	650.404602
1250.473459	1.911332	0.808004	2416.475098
1250.474363	1.863819	0.808004	4101.368164
1250.475290	1.805035	0.808004	5774.635742
1250.476215	1.745599	0.808004	7389.315430
1250.477129	1.690499	0.808004	8934.431641
1250.478026	1.638538	0.808004	10404.200195
1250.478977	1.315803	0.808004	11655.529297
1250.479886	0.120747	0.808004	11765.288086
1250.480784	0.090978	0.808004	11846.986328
1250.481669	0.091044	0.808004	11927.559570
1250.482605	0.091095	0.808004	12012.824219
1250.483519	0.091011	0.808004	12096.007812
1250.484418	0.091095	0.808004	12177.902344
1250.485343	0.091091	0.808004	12262.162109
1250.486260	0.091066	0.808004	12345.668945
1250.487161	0.090956	0.808004	12427.620117
1250.488050	0.090967	0.808004	12508.489258
1251.518019	1.453114	0.794909	627.745239
1251.518967	1.909940	0.794909	2438.368652
1251.519909	1.860985	0.794909	4191.416504
1251.520825	1.801604	0.794909	5841.685547
1251.521725	1.744640	0.794909	7411.861328
1251.522672	1.688002	0.794909	9010.399414
1251.523586	1.635417	0.794909	10505.170898
1251.524489	1.295387	0.794909	11674.905273
1251.525383	0.119136	0.794909	11781.413086
1251.526326	0.090989	0.794909	11867.215820
1251.527218	0.091055	0.794909	11948.436523
1251.528112	0.091033	0.794909	12029.819336
1251.529044	0.091212	0.794909	12114.829102
1251.529952	0.091095	0.794909	12197.542969
1251.530859	0.091025	0.794909	12280.102539
1251.531759	0.091069	0.794909	12362.064453
1251.532691	0.091183	0.794909	12447.046875
1251.533592	0.091014	0.794909	12529.050781
1252.567126	1.472194	0.807541	649.237366
1252.568023	1.911522	0.807541	2363.872803
1252.568993	1.861963	0.807541	4169.976562
1252.569912	1.803084	0.807541	5827.010254
1252.570815	1.745468	0.807541	7403.167480
1252.571742	1.689712	0.807541	8969.530273
1252.572655	1.636648	0.807541	10463.790039
1252.573573	1.300049	0.807541	11657.234375
1252.574480	0.119366	0.807541	11765.500000
1252.575413	0.091022	0.807541	11850.422852
1252.576314	0.091073	0.807541	11932.479492
1252.577213	0.091084	0.807541	12014.364258
1252.578099	0.091051	0.807541	12095.035156
1252.579050	0.091165	0.807541	12181.732422
1252.579954	0.091044	0.807541	12264.036133
1252.580848	0.091033	0.807541	12345.418945
1252.581766	0.091135	0.807541	12429.081055
1252.582672	0.091124	0.807541	12511.639648
1253.613411	1.490695	0.801116	672.303284
1253.614313	1.911420	0.801116	2396.403809
1253.615208	1.865043	0.801116	4065.617187
1253.616177	1.803483	0.801116	5813.191895
1253.617090	1.744449	0.801116	7405.874023
1253.618024	1.688287	0.801116	8982.734375
1253.618930	1.636011	0.801116	10464.959961
1253.619879	1.257056	0.801116	11657.906250
1253.620798	0.110013	0.801116	11759.008789
1253.621687	0.090978	0.801116	11839.887695
1253.622614	0.091088	0.801116	11924.326172
1253.623524	0.091011	0.801116	12007.145508
1253.624427	0.091033	0.801116	12089.347656
1253.625315	0.091003	0.801116	12170.158203
1253.626260	0.091066	0.801116	12256.214844
1253.627154	0.091000	0.801116	12337.568359
1253.628044	0.091044	0.801116	12418.597656
1253.628971	0.091106	0.801116	12503.052734
1254.662000	1.517314	0.804858	708.585815
1254.662912	1.910911	0.804858	2451.336426
1254.663819	1.862981	0.804858	4141.060059
1254.664711	1.804230	0.804858	5750.433105
1254.665671	1.745006	0.804858	7425.638672
1254.666579	1.689478	0.804858	8959.684570
1254.667480	1.637827	0.804858	10435.367187
1254.668415	1.306373	0.804858	11656.826172
1254.669335	0.117638	0.804858	11765.052734
1254.670240	0.090978	0.804858	11847.387695
1254.671127	0.091007	0.804858	11928.111328
1254.672075	0.091073	0.804858	12014.448242
1254.672972	0.091080	0.804858	12096.147461
1254.673878	0.091080	0.804858	12178.666016
1254.674780	0.091128	0.804858	12260.863281
1254.675714	0.091110	0.804858	12345.959961
1254.676615	0.091000	0.804858	12427.951172
1254.677511	0.091062	0.804858	12509.542969
1255.708765	1.491987	0.808013	669.902283
1255.709687	1.911050	0.808013	2431.890137
1255.710601	1.863010	0.808013	4134.681641
1255.711540	1.803809	0.808013	5828.458008
1255.712454	1.744735	0.808013	7423.145996
1255.713358	1.689723	0.808013	8950.655273
1255.714287	1.636714	0.808013	10471.162109
1255.715180	1.338512	0.808013	11666.453125
1255.716133	0.115818	0.808013	11776.827148
1255.717025	0.090846	0.808013	11857.861328
1255.717938	0.090981	0.808013	11940.927734
1255.718830	0.090908	0.808013	12022.017578
1255.719798	0.090927	0.808013	12110.034180
1255.720701	0.090978	0.808013	12192.187500
1255.721589	0.090978	0.808013	12272.975586
1255.722520	0.090938	0.808013	12357.638672
1255.723436	0.090886	0.808013	12440.890625
1255.724348	0.090897	0.808013	12523.789062
1256.756936	1.460647	0.791992	638.302734
1256.757831	1.910987	0.791992	2348.636719
1256.758805	1.862256	0.791992	4162.474121
1256.759723	1.802886	0.791992	5817.523437
1256.760624	1.745468	0.791992	7390.189453
1256.761564	1.689456	0.791992	8978.277344
1256.762473	1.636677	0.791992	10466.016602
1256.763378	1.326687	0.791992	11666.667969
1256.764276	0.125083	0.791992	11778.992187
1256.765224	0.090974	0.791992	11865.235352
1256.766131	0.090963	0.791992	11947.739258
1256.767030	0.090970	0.791992	12029.521484
1256.767935	0.091022	0.791992	12111.896484
1256.768859	0.091121	0.791992	12196.091797
1256.769770	0.091007	0.791992	12278.999023
1256.770662	0.091025	0.791992	12360.193359
1256.771585	0.091062	0.791992	12444.243164
1256.772490	0.091088	0.791992	12526.677734
1257.804671	1.494617	0.791795	735.351440
1257.805593	1.910134	0.791795	2496.495117
1257.806506	1.860557	0.791795	4195.183594
1257.807401	1.802684	0.791795	5808.585937
1257.808354	1.742695	0.791795	7469.374512
1257.809259	1.687969	0.791795	8996.986328
1257.810162	1.636176	0.791795	10474.453125
1257.811052	1.279435	0.791795	11613.150391
1257.811992	0.114470	0.791795	11720.751953
1257.812898	0.090817	0.791795	11803.032227
1257.813793	0.091011	0.791795	11884.487305
1257.814725	0.091168	0.791795	11969.456055
1257.815632	0.091132	0.791795	12052.112305
1257.816530	0.090996	0.791795	12133.827148
1257.817423	0.091007	0.791795	12215.096680
1257.818361	0.091084	0.791795	12300.533203
1257.819261	0.091117	0.791795	12382.538086
1257.820156	0.090952	0.791795	12463.940430
1258.851747	1.512960	0.789611	800.355957
1258.852667	1.908915	0.789611	2556.557617
1258.853563	1.859278	0.789611	4222.471191
1258.854503	1.799810	0.789611	5914.291992
1258.855418	1.740831	0.789611	7507.152344
1258.856336	1.685687	0.789611	9054.613281
1258.857238	1.633630	0.789611	10528.148437
1258.858168	1.218226	0.789611	11661.098633
1258.859086	0.105941	0.789611	11758.352539
1258.859984	0.090945	0.789611	11840.020508
1258.860874	0.091069	0.789611	11921.072266
1258.861819	0.091128	0.789611	12007.188477
1258.862721	0.091003	0.789611	12089.273437
1258.863613	0.090956	0.789611	12170.406250
1258.864548	0.091073	0.789611	12255.559570
1258.865456	0.091106	0.789611	12338.284180
1258.866361	0.090985	0.789611	12420.625977
1258.867254	0.091044	0.789611	12501.927734
1259.899980	1.465481	0.794679	641.880615
1259.900879	1.910742	0.794679	2359.637695
1259.901857	1.861143	0.794679	4179.834961
1259.902774	1.802128	0.794679	5832.386230
1259.903676	1.744845	0.794679	7406.236328
1259.904610	1.688939	0.794679	8983.705078
1259.905519	1.636362	0.794679	10471.158203
1259.906432	1.312423	0.794679	11669.400391
1259.907335	0.122494	0.794679	11780.012695
1259.908287	0.090963	0.794679	11866.609375
1259.909184	0.091018	0.794679	11948.252930
1259.910074	0.090934	0.794679	12029.183594
1259.910990	0.091007	0.794679	12112.545898
1259.911905	0.091091	0.794679	12195.894531
1259.912809	0.090956	0.794679	12278.118164
1259.913710	0.091022	0.794679	12360.128906
1259.914641	0.091047	0.794679	12444.893555
1259.915546	0.091062	0.794679	12527.304687
1260.946385	1.462031	0.801700	644.755798
1260.947283	1.912046	0.801700	2361.772949
1260.948180	1.864882	0.801700	4034.571777
1260.949152	1.803922	0.801700	5787.983887
1260.950058	1.746189	0.801700	7370.031250
1260.950954	1.691700	0.801700	8885.794922
1260.951894	1.637966	0.801700	10425.483398
1260.952791	1.350454	0.801700	11636.840820
1260.953715	0.129305	0.801700	11756.319336
1260.954608	0.090820	0.801700	11837.421875
1260.955533	0.090981	0.801700	11921.580078
1260.956437	0.090919	0.801700	12003.771484
1260.957327	0.091003	0.801700	12084.764648
1260.958256	0.091047	0.801700	12169.347656
1260.959168	0.090970	0.801700	12252.312500
1260.960071	0.091047	0.801700	12334.528320
1260.960957	0.091007	0.801700	12415.160156
1260.961899	0.091080	0.801700	12500.958008
1261.995366	1.500593	0.774102	682.769897
1261.996269	1.911237	0.774102	2408.616699
1261.997163	1.864142	0.774102	4075.159668
1261.998120	1.803915	0.774102	5801.505859
1261.999030	1.745673	0.774102	7390.067871
1261.999932	1.691059	0.774102	8915.403320
1262.000866	1.637783	0.774102	10445.092773
1262.001784	1.326577	0.774102	11662.890625
1262.002692	0.122545	0.774102	11774.162109
1262.003580	0.090930	0.774102	11854.908203
1262.004515	0.091036	0.774102	11940.027344
1262.005417	0.090992	0.774102	12022.102539
1262.006314	0.091022	0.774102	12103.749023
1262.007198	0.091066	0.774102	12184.250977
1262.008147	0.091014	0.774102	12270.624023
1262.009044	0.091025	0.774102	12352.273437
1262.009941	0.091025	0.774102	12433.922852
1262.010865	0.091051	0.774102	12518.053711
1263.041667	1.493884	0.800584	736.484924
1263.042584	1.909764	0.800584	2487.738770
1263.043491	1.861117	0.800584	4175.771484
1263.044380	1.803871	0.800584	5779.412598
1263.045326	1.743442	0.800584	7428.708984
1263.046245	1.687841	0.800584	8979.833984
1263.047167	1.635231	0.800584	10487.516602
1263.048061	1.270686	0.800584	11623.509766
1263.049022	0.108212	0.800584	11727.500977
1263.049920	0.090952	0.800584	11809.175781
1263.050808	0.091036	0.800584	11890.015625
1263.051757	0.091091	0.800584	11976.460937
1263.052658	0.091029	0.800584	12058.478516
1263.053548	0.090967	0.800584	12139.438477
1263.054453	0.091058	0.800584	12221.846680
1263.055370	0.091161	0.800584	12305.441406
1263.056279	0.091007	0.800584	12388.166992
1263.057167	0.090956	0.800584	12468.935547
1264.090619	1.471179	0.787819	717.935425
1264.091540	1.910281	0.787819	2477.303955
1264.092453	1.860597	0.787819	4176.028809
1264.093358	1.802355	0.787819	5807.159668
1264.094305	1.742582	0.787819	7457.384766
1264.095215	1.687485	0.787819	8992.996094
1264.096123	1.635461	0.787819	10477.995117
1264.097019	1.278702	0.787819	11623.712891
1264.097954	0.112771	0.787819	11729.153320
1264.098858	0.090908	0.787819	11811.333984
1264.099753	0.090989	0.787819	11892.768555
1264.100683	0.091058	0.787819	11977.453125
1264.101595	0.091102	0.787819	12060.538086
1264.102498	0.091003	0.787819	12142.713867
1264.103387	0.091040	0.787819	12223.648437
1264.104337	0.090938	0.787819	12310.039062
1264.105237	0.090992	0.787819	12391.932617
1264.106136	0.091088	0.787819	12473.820312
1265.136836	1.456223	0.802679	633.457031
1265.137780	1.910347	0.802679	2436.824219
1265.138690	1.862809	0.802679	4131.980469
1265.139592	1.804900	0.802679	5760.000000
1265.140490	1.747511	0.802679	7329.264648
1265.141447	1.690305	0.802679	8946.886719
1265.142356	1.637618	0.802679	10435.481445
1265.143264	1.348597	0.802679	11660.007812
1265.144162	0.129946	0.802679	11776.699219
1265.145104	0.090978	0.802679	11862.400391
1265.146016	0.091047	0.802679	11945.435547
1265.146904	0.091040	0.802679	12026.279297
1265.147840	0.091198	0.802679	12111.640625
1265.148748	0.091095	0.802679	12194.354492
1265.149646	0.091036	0.802679	12276.105469
1265.150534	0.091055	0.802679	12356.961914
1265.151473	0.091073	0.802679	12442.479492
1265.152378	0.090934	0.802679	12524.774414
1266.185808	1.461266	0.775822	644.418213
1266.186699	1.911515	0.775822	2347.578125
1266.187644	1.863259	0.775822	4108.357910
1266.188572	1.803959	0.775822	5782.431641
1266.189475	1.746255	0.775822	7359.299805
1266.190408	1.690690	0.775822	8936.712891
1266.191331	1.637150	0.775822	10447.801758
1266.192239	1.332089	0.775822	11657.337891
1266.193137	0.126478	0.775822	11770.915039
1266.194074	0.090963	0.775822	11856.147461
1266.194975	0.091058	0.775822	11938.191406
1266.195879	0.091011	0.775822	12020.464844
1266.196766	0.090996	0.775822	12101.178711
1266.197701	0.091154	0.775822	12186.407227
1266.198611	0.090992	0.775822	12269.209961
1266.199511	0.091029	0.775822	12351.135742
1266.200437	0.091047	0.775822	12435.445312
1266.201342	0.091165	0.775822	12517.949219
1267.231579	1.484769	0.794868	666.661377
1267.232482	1.911658	0.794868	2392.888184
1267.233374	1.864526	0.794868	4056.045654
1267.234329	1.804490	0.794868	5779.333496
1267.235230	1.746526	0.794868	7352.953125
1267.236135	1.692122	0.794868	8884.323242
1267.237073	1.638691	0.794868	10421.416016
1267.237980	1.357811	0.794868	11652.951172
1267.238890	0.129042	0.794868	11770.378906
1267.239782	0.090923	0.794868	11851.482422
1267.240739	0.091036	0.794868	11938.604492
1267.241640	0.090952	0.794868	12020.552734
1267.242540	0.090934	0.794868	12102.393555
1267.243425	0.091007	0.794868	12182.934570
1267.244354	0.091124	0.794868	12267.588867
1267.245264	0.090952	0.794868	12350.355469
1267.246156	0.091095	0.794868	12431.612305
1267.247085	0.091073	0.794868	12516.218750
1268.280852	1.521720	0.772551	783.685791
1268.281764	1.909197	0.772551	2524.873291
1268.282678	1.859630	0.772551	4224.575195
1268.283579	1.800875	0.772551	5847.163574
1268.284529	1.741047	0.772551	7501.158691
1268.285442	1.686105	0.772551	9040.572266
1268.286339	1.634824	0.772551	10507.009766
1268.287263	1.227217	0.772551	11640.958008
1268.288192	0.107534	0.772551	11740.857422
1268.289090	0.091018	0.772551	11822.591797
1268.289980	0.091121	0.772551	11903.689453
1268.290924	0.091091	0.772551	11989.679687
1268.291822	0.090970	0.772551	12071.371094
1268.292718	0.091121	0.772551	12153.015625
1268.293649	0.091113	0.772551	12237.841797
1268.294552	0.091095	0.772551	12320.100586
1268.295450	0.091058	0.772551	12401.871094
1268.296339	0.091025	0.772551	12482.792969
1269.326972	1.500956	0.789023	729.464539
1269.327903	1.909893	0.789023	2507.574463
1269.328814	1.860340	0.789023	4202.344727
1269.329706	1.802285	0.789023	5809.983398
1269.330664	1.742091	0.789023	7478.906738
1269.331575	1.687068	0.789023	9015.825195
1269.332473	1.635630	0.789023	10484.621094
1269.333399	1.262168	0.789023	11653.388672
1269.334315	0.112815	0.789023	11756.727539
1269.335217	0.090835	0.789023	11838.661133
1269.336112	0.091007	0.789023	11920.112305
1269.337036	0.091073	0.789023	12004.263672
1269.337942	0.091066	0.789023	12086.769531
1269.338842	0.090981	0.789023	12168.652344
1269.339729	0.091007	0.789023	12249.375977
1269.340670	0.091036	0.789023	12335.041016
1269.341576	0.091033	0.789023	12417.516602
1269.342466	0.090948	0.789023	12498.460937
1270.375626	1.464932	0.767689	640.175110
1270.376521	1.910383	0.767689	2349.968018
1270.377485	1.862040	0.767689	4144.974609
1270.378402	1.803051	0.767689	5798.372070
1270.379306	1.745651	0.767689	7376.440430
1270.380241	1.689803	0.767689	8956.406250
1270.381151	1.637076	0.767689	10446.145508
1270.382055	1.345477	0.767689	11662.457031
1270.382947	0.130071	0.767689	11778.480469
1270.383883	0.091022	0.767689	11863.676758
1270.384781	0.091077	0.767689	11945.463867
1270.385678	0.091003	0.767689	12027.093750
1270.386569	0.091033	0.767689	12108.204102
1270.387487	0.091077	0.767689	12191.812500
1270.388417	0.090938	0.767689	12276.384766
1270.389318	0.090963	0.767689	12358.342773
1270.390206	0.091084	0.767689	12439.225586
1270.391153	0.091069	0.767689	12525.467773
1271.422415	1.464071	0.773808	648.583496
1271.423308	1.911357	0.773808	2355.425537
1271.424269	1.862725	0.773808	4145.503906
1271.425168	1.804449	0.773808	5767.704102
1271.426064	1.747189	0.773808	7333.185059
1271.426997	1.691118	0.773808	8910.998047
1271.427903	1.638633	0.773808	10395.599609
1271.428816	1.373833	0.773808	11649.909180
1271.429708	0.135732	0.773808	11770.982422
1271.430651	0.091040	0.773808	11856.833008
1271.431563	0.091069	0.773808	11939.888672
1271.432456	0.091018	0.773808	12021.167969
1271.433394	0.091084	0.773808	12106.604492
1271.434290	0.091102	0.773808	12188.232422
1271.435182	0.091051	0.773808	12269.450195
1271.436076	0.090956	0.773808	12350.764648
1271.437015	0.091102	0.773808	12436.309570
1271.437917	0.091040	0.773808	12518.427734
1272.470627	1.501384	0.756861	686.132690
1272.471542	1.910735	0.756861	2434.455078
1272.472449	1.863098	0.756861	4124.285156
1272.473383	1.803651	0.756861	5808.895508
1272.474288	1.745625	0.756861	7388.686035
1272.475197	1.690756	0.756861	8925.583008
1272.476095	1.638523	0.756861	10396.976562
1272.477044	1.327335	0.756861	11656.617187
1272.477964	0.122292	0.756861	11769.125977
1272.478852	0.090948	0.756861	11849.888672
1272.479770	0.091047	0.756861	11933.469727
1272.480671	0.091062	0.756861	12015.516602
1272.481575	0.091025	0.756861	12097.803711
1272.482471	0.091077	0.756861	12179.408203
1272.483404	0.091062	0.756861	12264.369141
1272.484311	0.091062	0.756861	12346.961914
1272.485213	0.091033	0.756861	12429.073242
1272.486100	0.091011	0.756861	12509.799805
1273.517905	1.472270	0.771629	653.688110
1273.518809	1.911500	0.771629	2381.684082
1273.519754	1.863102	0.771629	4142.315430
1273.520672	1.803431	0.771629	5797.865234
1273.521574	1.745870	0.771629	7372.640137
1273.522469	1.691840	0.771629	8886.836914
1273.523420	1.637263	0.771629	10443.874023
1273.524331	1.328665	0.771629	11654.287109
1273.525235	0.125079	0.771629	11767.358398
1273.526121	0.090897	0.771629	11847.893555
1273.527054	0.091051	0.771629	11932.843750
1273.527958	0.091000	0.771629	12015.107422
1273.528857	0.090992	0.771629	12096.909180
1273.529783	0.090989	0.771629	12181.165039
1273.530690	0.091110	0.771629	12263.801758
1273.531593	0.091003	0.771629	12345.977539
1273.532514	0.090948	0.771629	12429.741211
1273.533403	0.091051	0.771629	12510.685547
1274.565329	1.464126	0.762988	645.679565
1274.566224	1.911515	0.762988	2356.485352
1274.567187	1.862146	0.762988	4149.731934
1274.568099	1.802937	0.762988	5794.010742
1274.569028	1.744274	0.762988	7414.440918
1274.569936	1.689327	0.762988	8948.350586
1274.570870	1.635879	0.762988	10476.261719
1274.571773	1.312236	0.762988	11661.210937
1274.572665	0.122772	0.762988	11770.723633
1274.573598	0.091029	0.762988	11855.653320
1274.574509	0.091007	0.762988	11938.560547
1274.575413	0.091073	0.762988	12020.890625
1274.576306	0.091000	0.762988	12102.153320
1274.577252	0.091168	0.762988	12188.398437
1274.578154	0.091022	0.762988	12270.500000
1274.579042	0.090996	0.762988	12351.304687
1274.579999	0.091099	0.762988	12438.486328
1274.580893	0.091084	0.762988	12519.915039
1275.613277	1.484740	0.783355	662.194031
1275.614197	1.910673	0.783355	2420.012939
1275.615103	1.863490	0.783355	4108.334961
1275.616009	1.804296	0.783355	5743.026855
1275.616958	1.744731	0.783355	7398.776855
1275.617877	1.689250	0.783355	8951.198242
1275.618782	1.636985	0.783355	10432.669922
1275.619717	1.305154	0.783355	11652.988281
1275.620632	0.117187	0.783355	11760.214844
1275.621536	0.090894	0.783355	11842.382812
1275.622424	0.091007	0.783355	11923.197266
1275.623369	0.091014	0.783355	12009.206055
1275.624268	0.091007	0.783355	12091.021484
1275.625160	0.091066	0.783355	12172.251953
1275.626078	0.091047	0.783355	12255.833008
1275.627000	0.091095	0.783355	12339.822266
1275.627909	0.091044	0.783355	12422.581055
1275.628809	0.090996	0.783355	12504.477539
1276.659311	1.477039	0.771842	698.639221
1276.660245	1.910079	0.771842	2482.653320
1276.661167	1.860073	0.771842	4197.640625
1276.662066	1.801893	0.771842	5817.542480
1276.663004	1.743047	0.771842	7452.520508
1276.663908	1.688068	0.771842	8978.533203
1276.664816	1.636018	0.771842	10464.038086
1276.665708	1.311486	0.771842	11633.882812
1276.666660	0.115126	0.771842	11743.482422
1276.667560	0.090967	0.771842	11825.352539
1276.668458	0.091058	0.771842	11907.123047
1276.669385	0.091091	0.771842	11991.564453
1276.670298	0.091091	0.771842	12074.730469
1276.671209	0.091022	0.771842	12157.651367
1276.672107	0.091055	0.771842	12239.418945
1276.673038	0.091176	0.771842	12324.303711
1276.673940	0.091146	0.771842	12406.517578
1276.674839	0.091003	0.771842	12488.330078
1277.708744	1.461958	0.765816	643.261536
1277.709638	1.911390	0.765816	2352.044678
1277.710606	1.861740	0.765816	4154.208496
1277.711533	1.801545	0.765816	5824.241211
1277.712458	1.743325	0.765816	7436.816895
1277.713357	1.688514	0.765816	8954.791016
1277.714321	1.633916	0.765816	10529.885742
1277.715226	1.267222	0.765816	11676.721680
1277.716121	0.114672	0.765816	11779.352539
1277.717048	0.091044	0.765816	11863.750000
1277.717956	0.091110	0.765816	11946.477539
1277.718848	0.091084	0.765816	12027.724609
1277.719775	0.091099	0.765816	12112.172852
1277.720686	0.091022	0.765816	12195.093750
1277.721595	0.091000	0.765816	12277.812500
1277.722480	0.090941	0.765816	12358.295898
1277.723430	0.091124	0.765816	12444.864258
1277.724346	0.091029	0.765816	12528.247070
1278.754650	1.472435	0.766622	656.706177
1278.755542	1.910834	0.766622	2361.169922
1278.756504	1.862439	0.766622	4152.836426
1278.757408	1.803571	0.766622	5783.264160
1278.758312	1.746270	0.766622	7361.891602
1278.759243	1.690444	0.766622	8935.695312
1278.760155	1.637527	0.766622	10429.120117
1278.761064	1.349637	0.766622	11655.940430
1278.761963	0.129478	0.766622	11772.340820
1278.762924	0.091000	0.766622	11859.791992
1278.763822	0.091040	0.766622	11941.545898
1278.764724	0.091000	0.766622	12023.627930
1278.765611	0.091029	0.766622	12104.371094
1278.766547	0.091084	0.766622	12189.625977
1278.767447	0.090938	0.766622	12271.469727
1278.768344	0.090985	0.766622	12353.083008
1278.769276	0.091154	0.766622	12438.038086
1278.770178	0.091062	0.766622	12520.175781
1279.804744	1.457025	0.752571	632.348938
1279.805677	1.910061	0.752571	2414.435791
1279.806625	1.861293	0.752571	4178.941406
1279.807540	1.801988	0.752571	5827.760742
1279.808446	1.744156	0.752571	7407.966797
1279.809400	1.687423	0.752571	9017.768555
1279.810309	1.634967	0.752571	10503.953125
1279.811216	1.288803	0.752571	11672.896484
1279.812109	0.118271	0.752571	11778.512695
1279.813055	0.091073	0.752571	11864.667969
1279.813951	0.090985	0.752571	11946.190430
1279.814848	0.090996	0.752571	12027.813477
1279.815776	0.091110	0.752571	12112.363281
1279.816685	0.091102	0.752571	12195.174805
1279.817585	0.090959	0.752571	12277.038086
1279.818473	0.091033	0.752571	12357.875000
1279.819423	0.091132	0.752571	12444.450195
1279.820325	0.091033	0.752571	12526.561523
1280.849221	1.455066	0.762847	630.043518
1280.850172	1.910186	0.762847	2446.629883
1280.851097	1.861109	0.762847	4168.156250
1280.852019	1.801912	0.762847	5829.518555
1280.852910	1.744706	0.762847	7384.051270
1280.853868	1.687240	0.762847	9000.427734
1280.854770	1.635674	0.762847	10475.805664
1280.855661	1.307908	0.762847	11641.151367
1280.856620	0.112793	0.762847	11749.320312
1280.857518	0.090883	0.762847	11830.932617
1280.858408	0.090948	0.762847	11911.876953
1280.859315	0.090967	0.762847	11994.383789
1280.860238	0.090967	0.762847	12078.345703
1280.861142	0.090883	0.762847	12160.503906
1280.862031	0.090934	0.762847	12241.343750
1280.862955	0.091033	0.762847	12325.458008
1280.863865	0.090908	0.762847	12408.184570
1280.864760	0.090857	0.762847	12489.501953
1281.899730	1.478533	0.759967	656.468506
1281.900641	1.911035	0.759967	2397.421387
1281.901543	1.864325	0.759967	4079.042480
1281.902477	1.804871	0.759967	5764.791504
1281.903385	1.746683	0.759967	7350.780273
1281.904288	1.692279	0.759967	8878.908203
1281.905183	1.640006	0.759967	10346.713867
1281.906134	1.367765	0.759967	11647.458008
1281.907046	0.131667	0.759967	11767.539062
1281.907944	0.090908	0.759967	11849.174805
1281.908873	0.090978	0.759967	11933.693359
1281.909777	0.091040	0.759967	12015.993164
1281.910694	0.090912	0.759967	12099.359375
1281.911588	0.090981	0.759967	12180.697266
1281.912512	0.091073	0.759967	12264.848633
1281.913410	0.091025	0.759967	12346.589844
1281.914307	0.091051	0.759967	12428.262695
1281.915193	0.091051	0.759967	12508.933594
1282.943965	1.480730	0.762867	666.328552
1282.944870	1.911314	0.762867	2396.067383
1282.945767	1.864552	0.762867	4068.570557
1282.946724	1.803501	0.762867	5794.520996
1282.947628	1.745251	0.762867	7372.228516
1282.948559	1.689924	0.762867	8945.547852
1282.949452	1.637212	0.762867	10407.578125
1282.950399	1.297661	0.762867	11636.462891
1282.951313	0.118770	0.762867	11745.018555
1282.952200	0.090919	0.762867	11825.664062
1282.953132	0.091106	0.762867	11910.575195
1282.954037	0.091018	0.762867	11992.946289
1282.954929	0.091018	0.762867	12074.134766
1282.955854	0.091128	0.762867	12158.427734
1282.956759	0.091113	0.762867	12240.884766
1282.957656	0.091051	0.762867	12322.557617
1282.958544	0.091014	0.762867	12403.377930
1282.959469	0.091139	0.762867	12487.681641
1283.995739	1.484901	0.745638	659.296143
1283.996660	1.910713	0.745638	2419.062744
1283.997566	1.863365	0.745638	4107.271973
1283.998458	1.805197	0.745638	5717.507324
1283.999411	1.745603	0.745638	7381.066895
1284.000325	1.690367	0.745638	8926.062500
1284.001229	1.638193	0.745638	10406.989258
1284.002180	1.309669	0.745638	11652.484375
1284.003096	0.119736	0.745638	11762.163086
1284.003993	0.091000	0.745638	11843.790039
1284.004877	0.091025	0.745638	11924.256836
1284.005814	0.091073	0.745638	12009.591797
1284.006721	0.091095	0.745638	12092.214844
1284.007621	0.091091	0.745638	12174.197266
1284.008526	0.091044	0.745638	12256.591797
1284.009456	0.091212	0.745638	12341.418945
1284.010359	0.090945	0.745638	12423.541992
1284.011255	0.091036	0.745638	12505.110352
1285.039197	1.499491	0.748877	674.770935
1285.040117	1.910603	0.748877	2432.525635
1285.041020	1.863142	0.748877	4114.942871
1285.041963	1.803604	0.748877	5815.741211
1285.042875	1.744662	0.748877	7406.873047
1285.043781	1.690111	0.748877	8938.113281
1285.044674	1.638655	0.748877	10401.431641
1285.045623	1.323453	0.748877	11657.388672
1285.046530	0.122395	0.748877	11768.401367
1285.047432	0.090927	0.748877	11850.416992
1285.048316	0.090981	0.748877	11930.844727
1285.049256	0.091124	0.748877	12016.501953
1285.050166	0.090992	0.748877	12099.304687
1285.051060	0.091014	0.748877	12180.671875
1285.051983	0.091091	0.748877	12264.749023
1285.052883	0.091066	0.748877	12346.708008
1285.053781	0.090970	0.748877	12428.399414
1285.054699	0.091014	0.748877	12511.950195
1286.090575	1.474255	0.741936	654.569336
1286.091470	1.910145	0.741936	2364.149414
1286.092452	1.860425	0.741936	4191.086914
1286.093374	1.800959	0.741936	5851.571289
1286.094280	1.743439	0.741936	7431.126953
1286.095224	1.687804	0.741936	9024.414062
1286.096143	1.634275	0.741936	10526.312500
1286.097056	1.258791	0.741936	11675.588867
1286.097954	0.113452	0.741936	11777.468750
1286.098903	0.091007	0.741936	11863.833984
1286.099800	0.091051	0.741936	11945.506836
1286.100696	0.091058	0.741936	12027.094727
1286.101587	0.091011	0.741936	12108.185547
1286.102535	0.091066	0.741936	12194.515625
1286.103445	0.090981	0.741936	12277.308594
1286.104347	0.090992	0.741936	12359.383789
1286.105274	0.091025	0.741936	12443.764648
1286.106171	0.091106	0.741936	12525.486328
1287.134027	1.460511	0.765562	635.322449
1287.134967	1.910035	0.765562	2430.755615
1287.135893	1.861714	0.765562	4154.702637
1287.136810	1.802703	0.765562	5807.780762
1287.137713	1.745002	0.765562	7383.518066
1287.138659	1.688624	0.765562	8980.957031
1287.139565	1.636271	0.765562	10463.417969
1287.140472	1.327328	0.765562	11667.304687
1287.141366	0.125555	0.765562	11779.550781
1287.142318	0.091029	0.765562	11866.209961
1287.143218	0.091036	0.765562	11948.142578
1287.144113	0.091022	0.765562	12029.607422
1287.145043	0.091102	0.765562	12114.333008
1287.145947	0.091132	0.765562	12196.715820
1287.146845	0.090967	0.765562	12278.404297
1287.147731	0.090963	0.765562	12358.998047
1287.148678	0.091025	0.765562	12445.199219
1287.149580	0.091069	0.765562	12527.343750
1288.185993	1.528909	0.744647	762.925415
1288.186903	1.909248	0.744647	2500.341064
1288.187832	1.859458	0.744647	4227.777344
1288.188728	1.801106	0.744647	5841.568359
1288.189678	1.740883	0.744647	7495.406738
1288.190588	1.686218	0.744647	9029.865234
1288.191489	1.634824	0.744647	10502.841797
1288.192420	1.244037	0.744647	11661.040039
1288.193360	0.106545	0.744647	11761.192383
1288.194263	0.090956	0.744647	11843.325195
1288.195155	0.091025	0.744647	11924.519531
1288.196092	0.091029	0.744647	12009.813477
1288.196991	0.091011	0.744647	12091.631836
1288.197881	0.091106	0.744647	12172.715820
1288.198828	0.091099	0.744647	12258.986328
1288.199728	0.091014	0.744647	12340.899414
1288.200632	0.090989	0.744647	12423.153320
1288.201524	0.091036	0.744647	12504.357422
1289.229279	1.485546	0.766678	672.952148
1289.230182	1.911226	0.766678	2398.788818
1289.231077	1.864168	0.766678	4067.218750
1289.232016	1.804340	0.766678	5761.493652
1289.232923	1.746746	0.766678	7345.791992
1289.233825	1.691982	0.766678	8871.959961
1289.234759	1.638871	0.766678	10402.665039
1289.235682	1.356504	0.766678	11654.717773
1289.236601	0.126291	0.766678	11770.779297
1289.237500	0.090919	0.766678	11852.515625
1289.238449	0.091073	0.766678	11938.944336
1289.239346	0.091069	0.766678	12020.633789
1289.240242	0.091077	0.766678	12102.238281
1289.241127	0.091084	0.766678	12182.847656
1289.242067	0.091121	0.766678	12268.500977
1289.242974	0.090989	0.766678	12351.027344
1289.243873	0.091069	0.766678	12432.898437
1289.244801	0.091069	0.766678	12517.411133
1290.280783	1.470242	0.732602	655.727783
1290.281748	1.909768	0.732602	2498.654053
1290.282649	1.861011	0.732602	4175.424805
1290.283552	1.802659	0.732602	5803.225586
1290.284448	1.744523	0.732602	7366.317871
1290.285403	1.688126	0.732602	8978.478516
1290.286327	1.635015	0.732602	10489.232422
1290.287238	1.268599	0.732602	11644.925781
1290.288172	0.110310	0.732602	11747.955078
1290.289061	0.090930	0.732602	11828.791992
1290.290007	0.091000	0.732602	11914.877930
1290.290921	0.091029	0.732602	11998.078125
1290.291810	0.090989	0.732602	12078.966797
1290.292746	0.091066	0.732602	12164.204102
1290.293640	0.091007	0.732602	12245.564453
1290.294529	0.090992	0.732602	12326.457031
1290.295436	0.091025	0.732602	12409.016602
1290.296389	0.091062	0.732602	12495.798828
1291.324243	1.462683	0.762134	645.043213
1291.325196	1.909966	0.762134	2465.240723
1291.326114	1.861055	0.762134	4173.688965
1291.327011	1.802922	0.762134	5790.910156
1291.327951	1.744123	0.762134	7430.386230
1291.328866	1.688339	0.762134	8975.215820
1291.329771	1.636241	0.762134	10456.014648
1291.330664	1.345137	0.762134	11657.221680
1291.331607	0.118202	0.762134	11768.686523
1291.332519	0.090970	0.762134	11851.651367
1291.333419	0.090930	0.762134	11933.488281
1291.334307	0.090981	0.762134	12014.280273
1291.335251	0.091124	0.762134	12100.301758
1291.336162	0.091011	0.762134	12183.212891
1291.337049	0.091025	0.762134	12263.952148
1291.337978	0.091110	0.762134	12348.592773
1291.338884	0.091128	0.762134	12431.154297
1291.339787	0.091040	0.762134	12513.363281
1292.375901	1.490109	0.734314	672.039001
1292.376801	1.911105	0.734314	2392.033203
1292.377724	1.862970	0.734314	4111.554687
1292.378653	1.803614	0.734314	5787.112305
1292.379572	1.745215	0.734314	7390.964844
1292.380468	1.690463	0.734314	8905.619141
1292.381409	1.636871	0.734314	10445.915039
1292.382322	1.323307	0.734314	11654.093750
1292.383232	0.122391	0.734314	11765.469727
1292.384120	0.090919	0.734314	11846.206055
1292.385066	0.091080	0.734314	11932.368164
1292.385966	0.090992	0.734314	12014.261719
1292.386865	0.091055	0.734314	12096.120117
1292.387785	0.091000	0.734314	12179.839844
1292.388695	0.091128	0.734314	12262.766602
1292.389604	0.091062	0.734314	12345.541992
1292.390493	0.091029	0.734314	12426.466797
1292.391420	0.091084	0.734314	12510.901367
1293.419488	1.498715	0.760382	681.915100
1293.420394	1.910709	0.760382	2413.017578
1293.421289	1.862809	0.760382	4080.231445
1293.422244	1.802856	0.760382	5801.959473
1293.423151	1.745149	0.760382	7384.809570
1293.424047	1.690931	0.760382	8899.883789
1293.424990	1.637659	0.760382	10444.195312
1293.425904	1.321238	0.760382	11651.806641
1293.426813	0.122589	0.760382	11763.240234
1293.427700	0.090839	0.760382	11843.814453
1293.428633	0.091069	0.760382	11928.782227
1293.429535	0.090930	0.760382	12010.800781
1293.430453	0.091033	0.760382	12094.369141
1293.431340	0.091033	0.760382	12175.115234
1293.432286	0.090981	0.760382	12261.183594
1293.433184	0.091058	0.760382	12342.954102
1293.434068	0.091025	0.760382	12423.420898
1293.435010	0.091047	0.760382	12509.187500
1294.470911	1.494452	0.720010	735.270325
1294.471832	1.909299	0.720010	2493.735107
1294.472746	1.859769	0.720010	4193.564453
1294.473645	1.801996	0.720010	5813.558594
1294.474590	1.742446	0.720010	7460.170410
1294.475498	1.686896	0.720010	8991.872070
1294.476410	1.634916	0.720010	10482.915039
1294.477307	1.263567	0.720010	11616.333984
1294.478270	0.106897	0.720010	11719.275391
1294.479180	0.090897	0.720010	11801.992187
1294.480074	0.091000	0.720010	11883.345703
1294.481002	0.090981	0.720010	11967.776367
1294.481904	0.091062	0.720010	12049.914062
1294.482801	0.091018	0.720010	12131.557617
1294.483692	0.091102	0.720010	12212.729492
1294.484640	0.091073	0.720010	12299.066406
1294.485532	0.091029	0.720010	12380.264648
1294.486438	0.091029	0.720010	12462.737305
1295.514373	1.512642	0.764487	748.757568
1295.515289	1.909201	0.764487	2497.585449
1295.516195	1.860384	0.764487	4183.093750
1295.517089	1.802501	0.764487	5794.529785
1295.518048	1.742234	0.764487	7465.332031
1295.518959	1.686885	0.764487	9002.083984
1295.519865	1.635066	0.764487	10483.454102
1295.520759	1.319663	0.764487	11663.232422
1295.521697	0.121787	0.764487	11777.468750
1295.522619	0.090934	0.764487	11861.309570
1295.523520	0.091022	0.764487	11943.320312
1295.524409	0.091062	0.764487	12024.274414
1295.525341	0.091029	0.764487	12109.113281
1295.526240	0.091014	0.764487	12190.935547
1295.527164	0.091036	0.764487	12275.052734
1295.528051	0.090992	0.764487	12355.762695
1295.528984	0.091033	0.764487	12440.696289
1295.529884	0.091003	0.764487	12522.599609
1296.565979	1.476134	0.721106	659.831909
1296.566873	1.910977	0.721106	2368.244873
1296.567831	1.861633	0.721106	4151.689453
1296.568753	1.802047	0.721106	5813.176758
1296.569661	1.744351	0.721106	7397.046875
1296.570555	1.689261	0.721106	8907.246094
1296.571495	1.636249	0.721106	10445.320312
1296.572410	1.315444	0.721106	11648.952148
1296.573308	0.122351	0.721106	11758.823242
1296.574238	0.090883	0.721106	11843.343750
1296.575141	0.091040	0.721106	11925.552734
1296.576043	0.090989	0.721106	12007.625000
1296.576932	0.090996	0.721106	12088.520508
1296.577873	0.091077	0.721106	12174.223633
1296.578774	0.091025	0.721106	12256.237305
1296.579676	0.090978	0.721106	12338.298828
1296.580559	0.091018	0.721106	12418.667969
1296.581500	0.091088	0.721106	12504.381836
1297.609548	1.475314	0.736345	655.039246
1297.610442	1.909812	0.736345	2362.411133
1297.611416	1.860919	0.736345	4174.946289
1297.612334	1.801791	0.736345	5828.990234
1297.613230	1.744724	0.736345	7392.262695
1297.614175	1.688650	0.736345	8988.037109
1297.615079	1.636003	0.736345	10466.984375
1297.615980	1.324215	0.736345	11660.102539
1297.616879	0.125226	0.736345	11772.680664
1297.617819	0.090908	0.736345	11858.134766
1297.618724	0.090948	0.736345	11940.443359
1297.619622	0.090956	0.736345	12022.122070
1297.620535	0.091007	0.736345	12105.211914
1297.621455	0.091124	0.736345	12189.045898
1297.622363	0.090952	0.736345	12271.630859
1297.623255	0.091025	0.736345	12352.825195
1297.624200	0.091091	0.736345	12438.906250
1297.625091	0.091066	0.736345	12520.045898
1298.660888	1.558799	0.721041	802.781372
1298.661798	1.908614	0.721041	2539.620605
1298.662704	1.858795	0.721041	4223.688965
1298.663642	1.799330	0.721041	5911.460449
1298.664533	1.741622	0.721041	7463.246094
1298.665481	1.685182	0.721041	9060.798828
1298.666392	1.633030	0.721041	10548.489258
1298.667287	1.274517	0.721041	11689.181641
1298.668223	0.114126	0.721041	11796.003906
1298.669132	0.090938	0.721041	11878.666016
1298.670053	0.091040	0.721041	11962.513672
1298.670942	0.091066	0.721041	12043.470703
1298.671897	0.091069	0.721041	12130.442383
1298.672800	0.091051	0.721041	12212.661133
1298.673695	0.091110	0.721041	12294.204102
1298.674596	0.091106	0.721041	12376.291016
1298.675534	0.091011	0.721041	12461.659180
1298.676440	0.091099	0.721041	12544.194336
1299.704531	1.476486	0.726983	651.130127
1299.705455	1.910350	0.726983	2416.293945
1299.706361	1.863036	0.726983	4104.204590
1299.707310	1.802875	0.726983	5815.132812
1299.708214	1.744801	0.726983	7392.433105
1299.709121	1.690199	0.726983	8925.443359
1299.710016	1.638219	0.726983	10391.649414
1299.710960	1.317144	0.726983	11635.033203
1299.711875	0.121545	0.726983	11746.247070
1299.712776	0.090978	0.726983	11828.217773
1299.713690	0.091088	0.726983	11911.471680
1299.714599	0.091172	0.726983	11994.346680
1299.715505	0.091062	0.726983	12076.848633
1299.716403	0.091055	0.726983	12158.616211
1299.717344	0.091117	0.726983	12244.357422
1299.718245	0.091113	0.726983	12326.450195
1299.719147	0.091047	0.726983	12408.575195
1299.720030	0.091088	0.726983	12489.005859
1300.755913	1.463379	0.725464	639.496582
1300.756809	1.910021	0.725464	2350.875000
1300.757781	1.861267	0.725464	4160.026367
1300.758702	1.801978	0.725464	5819.647461
1300.759601	1.744830	0.725464	7388.250000
1300.760549	1.688562	0.725464	8989.006836
1300.761454	1.635560	0.725464	10469.189453
1300.762366	1.303887	0.725464	11658.333984
1300.763263	0.120703	0.725464	11766.604492
1300.764203	0.091080	0.725464	11852.219727
1300.765109	0.091040	0.725464	11934.702148
1300.766002	0.091044	0.725464	12016.003906
1300.766930	0.091113	0.725464	12100.556641
1300.767850	0.091176	0.725464	12184.438477
1300.768760	0.091029	0.725464	12267.275391
1300.769653	0.091051	0.725464	12348.583984
1300.770594	0.091102	0.725464	12434.311523
1300.771485	0.091084	0.725464	12515.467773
1301.799753	1.461207	0.732381	638.547607
1301.800651	1.910526	0.732381	2354.200195
1301.801623	1.861033	0.732381	4163.124023
1301.802533	1.802402	0.732381	5803.310059
1301.803432	1.745204	0.732381	7372.248047
1301.804359	1.690012	0.732381	8938.889648
1301.805286	1.636044	0.732381	10455.501953
1301.806189	1.329624	0.732381	11656.152344
1301.807084	0.126610	0.732381	11769.468750
1301.808029	0.090945	0.732381	11855.411133
1301.808928	0.090981	0.732381	11937.203125
1301.809820	0.091000	0.732381	12018.375000
1301.810757	0.091102	0.732381	12103.738281
1301.811669	0.091051	0.732381	12186.776367
1301.812570	0.091044	0.732381	12268.806641
1301.813461	0.091033	0.732381	12349.916992
1301.814419	0.091121	0.732381	12437.210937
1301.815324	0.091018	0.732381	12519.582031
1302.850908	1.502487	0.713037	686.636353
1302.851832	1.910043	0.713037	2451.515869
1302.852735	1.862032	0.713037	4132.931152
1302.853676	1.802384	0.713037	5828.974609
1302.854591	1.743904	0.713037	7424.646484
1302.855494	1.689371	0.713037	8950.148437
1302.856387	1.637552	0.713037	10412.482422
1302.857335	1.296940	0.713037	11641.981445
1302.858258	0.116719	0.713037	11749.712891
1302.859155	0.090901	0.713037	11831.250977
1302.860074	0.091073	0.713037	11914.947266
1302.860996	0.091154	0.713037	11998.991211
1302.861898	0.091011	0.713037	12081.083008
1302.862794	0.091143	0.713037	12162.747070
1302.863727	0.091106	0.713037	12247.749023
1302.864631	0.091033	0.713037	12330.042969
1302.865525	0.091047	0.713037	12411.439453
1302.866414	0.091047	0.713037	12492.380859
1303.894931	1.543132	0.731281	788.540588
1303.895837	1.908625	0.731281	2517.755371
1303.896737	1.860128	0.731281	4191.870605
1303.897680	1.800190	0.731281	5889.450195
1303.898596	1.741560	0.731281	7484.719238
1303.899522	1.685980	0.731281	9045.936523
1303.900427	1.633788	0.731281	10524.514648
1303.901390	1.186476	0.731281	11667.090820
1303.902311	0.103418	0.731281	11762.338867
1303.903199	0.090967	0.731281	11843.117187
1303.904101	0.091055	0.731281	11925.248047
1303.905029	0.091029	0.731281	12009.722656
1303.905924	0.091088	0.731281	12091.246094
1303.906810	0.091044	0.731281	12171.911133
1303.907752	0.091036	0.731281	12257.666992
1303.908661	0.090959	0.731281	12340.349609
1303.909557	0.091044	0.731281	12421.924805
1303.910491	0.091084	0.731281	12506.997070
1304.945998	1.465254	0.715780	652.038025
1304.946950	1.909805	0.715780	2470.172119
1304.947871	1.860370	0.715780	4183.572754
1304.948785	1.801802	0.715780	5830.419434
1304.949677	1.744054	0.715780	7386.115723
1304.950619	1.688287	0.715780	8976.482422
1304.951537	1.635487	0.715780	10477.859375
1304.952432	1.321293	0.715780	11660.416016
1304.953364	0.122505	0.715780	11774.590820
1304.954272	0.090952	0.715780	11857.175781
1304.955175	0.090963	0.715780	11939.315430
1304.956063	0.091022	0.715780	12020.142578
1304.957014	0.091143	0.715780	12106.819336
1304.957919	0.091022	0.715780	12189.194336
1304.958824	0.091080	0.715780	12271.622070
1304.959712	0.091007	0.715780	12352.436523
1304.960651	0.091040	0.715780	12437.922852
1304.961559	0.091000	0.715780	12520.550781
1305.990030	1.525301	0.737235	771.802551
1305.990949	1.908863	0.737235	2526.048096
1305.991855	1.859667	0.737235	4210.906250
1305.992746	1.801432	0.737235	5815.981934
1305.993686	1.742355	0.737235	7453.795410
1305.994605	1.687115	0.737235	9004.254883
1305.995511	1.634949	0.737235	10485.518555
1305.996410	1.315331	0.737235	11668.000977
1305.997349	0.121278	0.737235	11781.880859
1305.998256	0.090850	0.737235	11864.281250
1305.999152	0.090989	0.737235	11945.807617
1306.000043	0.091029	0.737235	12026.914062
1306.000992	0.091066	0.737235	12113.334961
1306.001892	0.091003	0.737235	12195.238281
1306.002802	0.090956	0.737235	12278.007812
1306.003700	0.090989	0.737235	12359.715820
1306.004651	0.091029	0.737235	12446.284180
1306.005556	0.090912	0.737235	12528.559570
1307.041383	1.501469	0.705794	707.191711
1307.042277	1.910350	0.705794	2415.044922
1307.043225	1.860802	0.705794	4179.084961
1307.044139	1.801571	0.705794	5825.720703
1307.045047	1.743999	0.705794	7409.271973
1307.045940	1.689675	0.705794	8918.152344
1307.046896	1.635483	0.705794	10481.674805
1307.047809	1.300862	0.705794	11669.361328
1307.048710	0.118751	0.705794	11776.356445
1307.049637	0.090934	0.705794	11860.652344
1307.050552	0.091099	0.705794	11944.007812
1307.051460	0.090970	0.705794	12026.609375
1307.052350	0.090978	0.705794	12107.580078
1307.053282	0.091113	0.705794	12192.498047
1307.054184	0.091073	0.705794	12274.645508
1307.055088	0.091029	0.705794	12356.935547
1307.055982	0.091036	0.705794	12438.322266
1307.056936	0.091069	0.705794	12525.202148
1308.084819	1.464283	0.740965	650.141846
1308.085711	1.910984	0.740965	2354.739502
1308.086660	1.861809	0.740965	4121.596191
1308.087578	1.802710	0.740965	5776.483887
1308.088493	1.744849	0.740965	7373.020508
1308.089389	1.689990	0.740965	8887.251953
1308.090347	1.636000	0.740965	10454.540039
1308.091263	1.306739	0.740965	11651.513672
1308.092171	0.119084	0.740965	11759.642578
1308.093102	0.090978	0.740965	11844.342773
1308.094005	0.091139	0.740965	11926.641602
1308.094902	0.091044	0.740965	12008.307617
1308.095826	0.090978	0.740965	12092.371094
1308.096709	0.090981	0.740965	12172.708008
1308.097652	0.091062	0.740965	12258.579102
1308.098563	0.091044	0.740965	12341.519531
1308.099454	0.091025	0.740965	12422.623047
1308.100366	0.090938	0.740965	12505.557617
1309.136270	1.512114	0.707494	763.617737
1309.137183	1.908757	0.707494	2506.312988
1309.138086	1.859909	0.707494	4185.810547
1309.138982	1.801835	0.707494	5800.254395
1309.139921	1.742545	0.707494	7436.504395
1309.140836	1.687134	0.707494	8980.231445
1309.141749	1.634839	0.707494	10472.839844
1309.142643	1.266149	0.707494	11604.776367
1309.143609	0.109915	0.707494	11710.954102
1309.144515	0.090934	0.707494	11793.339844
1309.145408	0.090974	0.707494	11874.580078
1309.146350	0.091036	0.707494	11960.335937
1309.147242	0.091117	0.707494	12041.612305
1309.148142	0.091062	0.707494	12123.568359
1309.149031	0.091062	0.707494	12204.522461
1309.149965	0.091132	0.707494	12289.639648
1309.150860	0.091047	0.707494	12371.126953
1309.151762	0.091003	0.707494	12453.211914
1310.179839	1.532564	0.721714	743.293335
1310.180751	1.909369	0.721714	2484.637695
1310.181654	1.860992	0.721714	4165.113770
1310.182556	1.802036	0.721714	5790.550293
1310.183497	1.743281	0.721714	7430.978027
1310.184414	1.687925	0.721714	8978.804687
1310.185321	1.635970	0.721714	10462.629883
1310.186253	1.284899	0.721714	11660.155273
1310.187177	0.112313	0.721714	11763.932617
1310.188082	0.090912	0.721714	11846.208008
1310.188969	0.091121	0.721714	11927.032227
1310.189927	0.091168	0.721714	12014.371094
1310.190829	0.091022	0.721714	12096.472656
1310.191723	0.090927	0.721714	12177.760742
1310.192640	0.091095	0.721714	12261.294922
1310.193564	0.091139	0.721714	12345.506836
1310.194471	0.090959	0.721714	12428.006836
1310.195369	0.091040	0.721714	12509.760742
1311.231322	1.473179	0.704525	657.037720
1311.232218	1.910204	0.704525	2368.580322
1311.233179	1.861190	0.704525	4157.184082
1311.234099	1.801963	0.704525	5814.989746
1311.234995	1.744666	0.704525	7378.209961
1311.235932	1.689086	0.704525	8960.882812
1311.236846	1.635696	0.704525	10455.909180
1311.237763	1.305809	0.704525	11653.335937
1311.238664	0.119403	0.704525	11760.917969
1311.239584	0.091025	0.704525	11844.661133
1311.240485	0.091099	0.704525	11926.741211
1311.241385	0.091080	0.704525	12008.713867
1311.242274	0.091102	0.704525	12089.704102
1311.243216	0.091143	0.704525	12175.560547
1311.244119	0.091110	0.704525	12257.833008
1311.245015	0.091117	0.704525	12339.473633
1311.245937	0.091058	0.704525	12423.429687
1311.246848	0.091080	0.704525	12506.404297
1312.275144	1.464020	0.710535	641.240662
1312.276092	1.909376	0.710535	2451.329346
1312.277010	1.861014	0.710535	4159.740234
1312.277919	1.802637	0.710535	5798.336914
1312.278813	1.745295	0.710535	7358.630859
1312.279760	1.688760	0.710535	8957.886719
1312.280673	1.636403	0.710535	10451.921875
1312.281574	1.341193	0.710535	11660.335937
1312.282520	0.128024	0.710535	11781.446289
1312.283425	0.091047	0.710535	11863.843750
1312.284326	0.091022	0.710535	11945.854492
1312.285215	0.091044	0.710535	12026.791992
1312.286147	0.091069	0.710535	12111.668945
1312.287056	0.091073	0.710535	12194.454102
1312.287961	0.091025	0.710535	12276.832031
1312.288856	0.091003	0.710535	12358.280273
1312.289798	0.091124	0.710535	12444.119141
1312.290703	0.091000	0.710535	12526.473633
1313.326403	1.470018	0.702716	639.457947
1313.327395	1.908457	0.702716	2532.647217
1313.328304	1.859183	0.702716	4222.645020
1313.329198	1.801403	0.702716	5833.098633
1313.330147	1.742010	0.702716	7486.266602
1313.331061	1.686420	0.702716	9027.654297
1313.331953	1.635143	0.702716	10486.201172
1313.332900	1.231970	0.702716	11652.876953
1313.333821	0.108911	0.702716	11753.184570
1313.334727	0.090864	0.702716	11835.507812
1313.335616	0.091007	0.702716	11916.413086
1313.336559	0.091150	0.702716	12002.367187
1313.337470	0.091007	0.702716	12085.274414
1313.338374	0.091029	0.702716	12167.564453
1313.339264	0.091106	0.702716	12248.648437
1313.340197	0.091117	0.702716	12333.660156
1313.341096	0.091069	0.702716	12415.531250
1313.341983	0.091033	0.702716	12496.277344
1314.370127	1.470575	0.726334	648.523499
1314.371031	1.910914	0.726334	2375.989990
1314.371924	1.863999	0.726334	4040.541016
1314.372898	1.802769	0.726334	5796.437500
1314.373818	1.744329	0.726334	7401.219727
1314.374726	1.689181	0.726334	8934.996094
1314.375653	1.636893	0.726334	10452.396484
1314.376557	1.335487	0.726334	11659.676758
1314.377459	0.126394	0.726334	11773.684570
1314.378346	0.090967	0.726334	11854.372070
1314.379298	0.091047	0.726334	11941.048828
1314.380199	0.091095	0.726334	12023.125000
1314.381104	0.091025	0.726334	12105.502930
1314.381993	0.091003	0.726334	12186.405273
1314.382946	0.091121	0.726334	12273.243164
1314.383849	0.091000	0.726334	12355.416016
1314.384748	0.091073	0.726334	12437.291016
1314.385680	0.091161	0.726334	12522.252930
1315.421520	1.471176	0.698253	650.259583
1315.422465	1.909402	0.698253	2454.644287
1315.423387	1.860754	0.698253	4170.259766
1315.424296	1.802406	0.698253	5808.646484
1315.425189	1.744753	0.698253	7366.711426
1315.426144	1.688038	0.698253	8978.788086
1315.427059	1.635553	0.698253	10475.319336
1315.427958	1.312599	0.698253	11655.345703
1315.428894	0.117023	0.698253	11764.878906
1315.429781	0.090908	0.698253	11845.514648
1315.430721	0.091011	0.698253	11931.064453
1315.431644	0.090989	0.698253	12015.046875
1315.432538	0.091069	0.698253	12096.462891
1315.433471	0.091055	0.698253	12181.416992
1315.434390	0.091000	0.698253	12265.045898
1315.435308	0.091073	0.698253	12348.651367
1315.436197	0.091000	0.698253	12429.549805
1315.437146	0.091022	0.698253	12515.929687
1316.465412	1.479862	0.697967	731.051880
1316.466323	1.909310	0.697967	2470.433594
1316.467236	1.859832	0.697967	4168.459961
1316.468136	1.801604	0.697967	5789.903320
1316.469076	1.742681	0.697967	7428.023437
1316.469981	1.687789	0.697967	8955.472656
1316.470889	1.635901	0.697967	10440.871094
1316.471784	1.301140	0.697967	11605.391602
1316.472738	0.111991	0.697967	11712.231445
1316.473642	0.090981	0.697967	11794.478516
1316.474538	0.091025	0.697967	11876.037109
1316.475479	0.091132	0.697967	11961.791992
1316.476376	0.091157	0.697967	12043.559570
1316.477270	0.090992	0.697967	12124.907227
1316.478160	0.091077	0.697967	12205.965820
1316.479110	0.091055	0.697967	12292.467773
1316.480012	0.091069	0.697967	12374.612305
1316.480917	0.091040	0.697967	12457.003906
1317.516493	1.477738	0.710757	654.637939
1317.517399	1.910889	0.710757	2385.903076
1317.518295	1.863629	0.710757	4055.714844
1317.519260	1.802578	0.710757	5795.202637
1317.520174	1.744720	0.710757	7389.876953
1317.521074	1.690485	0.710757	8911.313477
1317.522017	1.637150	0.710757	10455.145508
1317.522926	1.326808	0.710757	11661.213867
1317.523835	0.123120	0.710757	11773.129883
1317.524721	0.090945	0.710757	11853.707031
1317.525681	0.091135	0.710757	11941.197266
1317.526583	0.091044	0.710757	12023.318359
1317.527489	0.091025	0.710757	12105.787109
1317.528378	0.091007	0.710757	12186.692383
1317.529330	0.091106	0.710757	12273.424805
1317.530232	0.091055	0.710757	12355.555664
1317.531124	0.091033	0.710757	12436.756836
1317.532063	0.091161	0.710757	12522.356445
1318.560100	1.498059	0.704980	681.616882
1318.561010	1.910101	0.704980	2419.809082
1318.561906	1.863428	0.704980	4089.440430
1318.562852	1.803629	0.704980	5795.673828
1318.563767	1.744486	0.704980	7391.878906
1318.564665	1.690155	0.704980	8909.638672
1318.565597	1.637527	0.704980	10435.813477
1318.566515	1.326145	0.704980	11653.214844
1318.567421	0.124274	0.704980	11765.806641
1318.568308	0.090923	0.704980	11846.455078
1318.569240	0.091055	0.704980	11931.318359
1318.570155	0.091003	0.704980	12014.586914
1318.571057	0.091047	0.704980	12096.711914
1318.571947	0.091029	0.704980	12177.727539
1318.572893	0.091084	0.704980	12263.892578
1318.573800	0.090981	0.704980	12346.413086
1318.574689	0.091055	0.704980	12427.360352
1318.575606	0.091029	0.704980	12510.833984
1319.611208	1.459362	0.697910	639.200378
1319.612163	1.909541	0.697910	2462.812012
1319.613077	1.860839	0.697910	4163.618164
1319.613988	1.802146	0.697910	5805.373047
1319.614881	1.744384	0.697910	7363.107422
1319.615838	1.687983	0.697910	8978.507812
1319.616757	1.635308	0.697910	10481.355469
1319.617653	1.315426	0.697910	11659.977539
1319.618598	0.121029	0.697910	11774.349609
1319.619499	0.091007	0.697910	11856.346680
1319.620400	0.091040	0.697910	11938.374023
1319.621290	0.091084	0.697910	12019.438477
1319.622246	0.091110	0.697910	12106.539062
1319.623140	0.091077	0.697910	12187.961914
1319.624039	0.091080	0.697910	12269.842773
1319.624933	0.091117	0.697910	12351.301758
1319.625872	0.091113	0.697910	12436.857422
1319.626778	0.090985	0.697910	12519.290039
1320.655584	1.492196	0.703611	672.980408
1320.656501	1.910160	0.703611	2424.596924
1320.657405	1.862845	0.703611	4108.609375
1320.658351	1.803409	0.703611	5814.634766
1320.659263	1.744446	0.703611	7405.569336
1320.660168	1.689803	0.703611	8934.841797
1320.661066	1.637809	0.703611	10405.593750
1320.662000	1.310504	0.703611	11629.604492
1320.662930	0.118656	0.703611	11739.954102
1320.663834	0.090927	0.703611	11822.151367
1320.664723	0.091014	0.703611	11903.063477
1320.665669	0.091102	0.703611	11989.246094
1320.666574	0.090967	0.703611	12071.571289
1320.667468	0.091018	0.703611	12152.941406
1320.668388	0.091080	0.703611	12236.735352
1320.669278	0.091095	0.703611	12317.809570
1320.670217	0.091011	0.703611	12403.268555
1320.671126	0.090992	0.703611	12485.980469
1321.706187	1.471956	0.707188	646.188477
1321.707096	1.910852	0.707188	2383.152832
1321.707993	1.863596	0.707188	4054.798584
1321.708943	1.803962	0.707188	5768.562988
1321.709858	1.745618	0.707188	7365.803223
1321.710756	1.691228	0.707188	8884.526367
1321.711703	1.637805	0.707188	10435.527344
1321.712614	1.331700	0.707188	11648.706055
1321.713522	0.125068	0.707188	11762.268555
1321.714410	0.091007	0.707188	11843.083008
1321.715343	0.091143	0.707188	11928.119141
1321.716246	0.091058	0.707188	12010.344727
1321.717152	0.091033	0.707188	12092.820312
1321.718038	0.091055	0.707188	12173.495117
1321.718973	0.091069	0.707188	12258.644531
1321.719882	0.091011	0.707188	12341.373047
1321.720778	0.091073	0.707188	12422.974609
1321.721722	0.091113	0.707188	12508.985352
1322.750666	1.466071	0.701681	642.138916
1322.751612	1.909292	0.701681	2448.329102
1322.752527	1.861333	0.701681	4151.448730
1322.753434	1.802765	0.701681	5786.556641
1322.754326	1.745662	0.701681	7343.686523
1322.755282	1.688639	0.701681	8958.025391
1322.756199	1.636117	0.701681	10458.344727
1322.757095	1.342321	0.701681	11661.064453
1322.758015	0.127244	0.701681	11778.128906
1322.758943	0.091077	0.701681	11862.648437
1322.759844	0.091080	0.701681	11944.711914
1322.760744	0.091000	0.701681	12026.611328
1322.761669	0.091157	0.701681	12110.931641
1322.762574	0.091132	0.701681	12193.405273
1322.763477	0.091022	0.701681	12275.597656
1322.764364	0.091025	0.701681	12356.336914
1322.765309	0.091128	0.701681	12442.453125
1322.766213	0.091073	0.701681	12524.783203
1323.801030	1.457040	0.698531	633.812256
1323.801983	1.909131	0.698531	2453.213867
1323.802904	1.860886	0.698531	4167.089844
1323.803805	1.802853	0.698531	5791.459961
1323.804699	1.745468	0.698531	7351.908203
1323.805648	1.689016	0.698531	8954.784180
1323.806552	1.636820	0.698531	10434.469727
1323.807448	1.368578	0.698531	11660.715820
1323.808389	0.122666	0.698531	11776.144531
1323.809294	0.090970	0.698531	11858.472656
1323.810198	0.091044	0.698531	11940.776367
1323.811085	0.091066	0.698531	12021.551758
1323.812031	0.091091	0.698531	12107.724609
1323.812939	0.091029	0.698531	12190.378906
1323.813832	0.091080	0.698531	12271.713867
1323.814774	0.091146	0.698531	12357.573242
1323.815670	0.091132	0.698531	12439.227539
1323.816563	0.091033	0.698531	12520.519531
1324.846199	1.519113	0.688396	735.250488
1324.847097	1.909904	0.688396	2450.343994
1324.848031	1.860637	0.688396	4188.179199
1324.848949	1.800985	0.688396	5841.483398
1324.849854	1.743497	0.688396	7419.348633
1324.850748	1.689664	0.688396	8929.908203
1324.851686	1.636099	0.688396	10464.568359
1324.852605	1.300906	0.688396	11660.100586
1324.853520	0.116909	0.688396	11767.072266
1324.854411	0.090861	0.688396	11848.029297
1324.855344	0.091106	0.688396	11933.031250
1324.856247	0.090959	0.688396	12015.167969
1324.857141	0.091007	0.688396	12096.528320
1324.858069	0.091073	0.688396	12181.043945
1324.858967	0.091022	0.688396	12262.781250
1324.859863	0.090963	0.688396	12344.284180
1324.860753	0.091000	0.688396	12425.274414
1324.861694	0.091033	0.688396	12510.936523
1325.895773	1.486780	0.705246	663.103821
1325.896676	1.909845	0.705246	2387.693848
1325.897607	1.862157	0.705246	4121.362305
1325.898498	1.803662	0.705246	5728.425293
1325.899443	1.744413	0.705246	7376.895508
1325.900350	1.689910	0.705246	8909.643555
1325.901244	1.638457	0.705246	10374.423828
1325.902176	1.362521	0.705246	11644.292969
1325.903090	0.129056	0.705246	11762.250977
1325.903979	0.090905	0.705246	11843.065430
1325.904898	0.091088	0.705246	11926.775391
1325.905799	0.091022	0.705246	12008.786133
1325.906697	0.091003	0.705246	12090.506836
1325.907586	0.091025	0.705246	12171.428711
1325.908519	0.091102	0.705246	12256.426758
1325.909430	0.091029	0.705246	12339.354492
1325.910335	0.091033	0.705246	12421.739258
1325.911227	0.090978	0.705246	12502.891602
1326.941428	1.522057	0.700843	719.932861
1326.942346	1.909340	0.700843	2472.706543
1326.943251	1.861355	0.700843	4157.232422
1326.944142	1.803109	0.700843	5763.802734
1326.945088	1.744248	0.700843	7413.861328
1326.945999	1.688983	0.700843	8952.525391
1326.946899	1.637098	0.700843	10425.914062
1326.947838	1.300843	0.700843	11647.406250
1326.948758	0.116931	0.700843	11754.982422
1326.949665	0.090959	0.700843	11837.482422
1326.950553	0.091044	0.700843	11918.329102
1326.951505	0.091121	0.700843	12005.076172
1326.952408	0.091062	0.700843	12087.304687
1326.953308	0.091077	0.700843	12169.273437
1326.954205	0.091161	0.700843	12251.044922
1326.955133	0.091168	0.700843	12335.649414
1326.956033	0.091080	0.700843	12417.622070
1326.956931	0.091088	0.700843	12499.418945
1327.990606	1.459402	0.704864	637.758606
1327.991567	1.909332	0.704864	2472.626953
1327.992484	1.860399	0.704864	4178.613281
1327.993378	1.802585	0.704864	5790.125000
1327.994320	1.743662	0.704864	7432.654785
1327.995240	1.687427	0.704864	8985.087891
1327.996149	1.634941	0.704864	10471.250000
1327.997064	1.301389	0.704864	11662.021484
1327.997971	0.116235	0.704864	11767.447266
1327.998899	0.090970	0.704864	11851.868164
1327.999818	0.091022	0.704864	11935.517578
1328.000737	0.090996	0.704864	12019.142578
1328.001622	0.090981	0.704864	12099.661133
1328.002573	0.091007	0.704864	12186.208984
1328.003464	0.091055	0.704864	12267.338867
1328.004354	0.091066	0.704864	12348.387695
1328.005286	0.091165	0.704864	12433.353516
1328.006194	0.091000	0.704864	12515.981445
1329.036874	1.464452	0.703284	639.965454
1329.037813	1.909665	0.703284	2433.141357
1329.038727	1.861688	0.703284	4134.724609
1329.039635	1.803497	0.703284	5772.300293
1329.040531	1.745698	0.703284	7336.445801
1329.041483	1.689152	0.703284	8944.518555
1329.042397	1.636556	0.703284	10440.331055
1329.043304	1.340976	0.703284	11656.596680
1329.044245	0.126083	0.703284	11775.240234
1329.045147	0.091088	0.703284	11857.401367
1329.046044	0.091055	0.703284	11939.077148
1329.046927	0.091084	0.703284	12019.503906
1329.047864	0.091183	0.703284	12104.942383
1329.048761	0.091124	0.703284	12186.680664
1329.049664	0.091091	0.703284	12268.936523
1329.050554	0.091110	0.703284	12350.024414
1329.051492	0.091198	0.703284	12435.567383
1329.052398	0.091139	0.703284	12518.139648
1330.085472	1.488966	0.685064	675.990601
1330.086369	1.910621	0.685064	2389.817871
1330.087290	1.862087	0.685064	4104.800293
1330.088227	1.802454	0.685064	5793.699219
1330.089146	1.744098	0.685064	7396.525391
1330.090046	1.689756	0.685064	8917.305664
1330.090992	1.635828	0.685064	10464.798828
1330.091905	1.309134	0.685064	11660.039062
1330.092816	0.119396	0.685064	11768.808594
1330.093706	0.090967	0.685064	11849.768555
1330.094653	0.091135	0.685064	11936.073242
1330.095558	0.091040	0.685064	12018.464844
1330.096451	0.091036	0.685064	12099.760742
1330.097374	0.091077	0.685064	12183.824219
1330.098282	0.091135	0.685064	12266.575195
1330.099190	0.091000	0.685064	12349.203125
1330.100088	0.091014	0.685064	12430.933594
1330.101019	0.091084	0.685064	12515.732422
1331.132147	1.518003	0.674566	719.533386
1331.133047	1.909874	0.674566	2438.420166
1331.133993	1.860798	0.674566	4198.735352
1331.134896	1.801644	0.674566	5825.620117
1331.135802	1.743988	0.674566	7405.673340
1331.136699	1.689620	0.674566	8921.262695
1331.137640	1.635813	0.674566	10460.562500
1331.138552	1.312570	0.674566	11657.625977
1331.139464	0.119736	0.674566	11766.825195
1331.140353	0.090930	0.674566	11847.662109
1331.141301	0.091135	0.674566	11934.058594
1331.142211	0.091069	0.674566	12016.931641
1331.143103	0.090989	0.674566	12098.093750
1331.144042	0.091102	0.674566	12183.638672
1331.144945	0.091143	0.674566	12265.940430
1331.145838	0.091036	0.674566	12347.236328
1331.146724	0.091051	0.674566	12427.907227
1331.147659	0.091084	0.674566	12513.070312
1332.180045	1.459995	0.697572	640.937805
1332.180990	1.909951	0.697572	2445.841553
1332.181913	1.860850	0.697572	4163.405762
1332.182821	1.802388	0.697572	5799.973633
1332.183734	1.744135	0.697572	7392.368652
1332.184677	1.687690	0.697572	8983.861328
1332.185589	1.635300	0.697572	10475.254883
1332.186482	1.324907	0.697572	11658.396484
1332.187425	0.120073	0.697572	11771.625977
1332.188325	0.090970	0.697572	11853.499023
1332.189226	0.091088	0.697572	11935.569336
1332.190113	0.091033	0.697572	12016.315430
1332.191064	0.091154	0.697572	12103.002930
1332.191973	0.091073	0.697572	12185.788086
1332.192870	0.091113	0.697572	12267.516602
1332.193794	0.091135	0.697572	12351.725586
1332.194706	0.091216	0.697572	12434.914062
1332.195612	0.091161	0.697572	12517.505859
1333.227338	1.455103	0.684412	637.334900
1333.228299	1.909288	0.684412	2472.160889
1333.229221	1.860051	0.684412	4187.127930
1333.230115	1.802241	0.684412	5798.331543
1333.231071	1.742530	0.684412	7464.190430
1333.231989	1.686526	0.684412	9012.420898
1333.232892	1.634901	0.684412	10488.736328
1333.233784	1.293783	0.684412	11642.791016
1333.234721	0.112617	0.684412	11748.313477
1333.235626	0.090901	0.684412	11830.579102
1333.236517	0.091095	0.684412	11911.745117
1333.237436	0.091051	0.684412	11995.420898
1333.238350	0.091080	0.684412	12078.667969
1333.239255	0.090941	0.684412	12160.969727
1333.240148	0.091150	0.684412	12242.366211
1333.241092	0.091121	0.684412	12328.383789
1333.242003	0.091025	0.684412	12411.307617
1333.242897	0.091058	0.684412	12492.713867
1334.274764	1.471168	0.684472	647.314026
1334.275666	1.910951	0.684472	2370.991699
1334.276559	1.864592	0.684472	4036.072754
1334.277507	1.804658	0.684472	5746.888672
1334.278422	1.746497	0.684472	7344.933105
1334.279319	1.691799	0.684472	8862.476562
1334.280250	1.638728	0.684472	10388.132812
1334.281170	1.360291	0.684472	11639.599609
1334.282094	0.127650	0.684472	11757.548828
1334.282995	0.090875	0.684472	11839.427734
1334.283928	0.091102	0.684472	11924.425781
1334.284838	0.091014	0.684472	12007.249023
1334.285743	0.091003	0.684472	12089.607422
1334.286631	0.090912	0.684472	12170.336914
1334.287579	0.091062	0.684472	12256.664062
1334.288489	0.090970	0.684472	12339.447266
1334.289384	0.091018	0.684472	12420.908203
1334.290318	0.091018	0.684472	12505.918945
1335.322709	1.462518	0.690825	652.283203
1335.323603	1.910468	0.690825	2360.241211
1335.324546	1.862574	0.690825	4116.648926
1335.325456	1.803472	0.690825	5757.808105
1335.326372	1.745369	0.690825	7356.565918
1335.327276	1.690595	0.690825	8884.863281
1335.328245	1.635242	0.690825	10469.412109
1335.329158	1.303290	0.690825	11659.315430
1335.330053	0.119312	0.690825	11766.099609
1335.330968	0.090948	0.690825	11849.317383
1335.331897	0.090959	0.690825	11933.818359
1335.332788	0.091036	0.690825	12014.931641
1335.333675	0.090978	0.690825	12095.628906
1335.334611	0.091033	0.690825	12180.835937
1335.335518	0.091029	0.690825	12263.399414
1335.336415	0.091106	0.690825	12345.121094
1335.337354	0.091143	0.690825	12430.704102
1335.338270	0.091007	0.690825	12514.066406
1336.369608	1.457856	0.685834	639.998962
1336.370581	1.908739	0.685834	2497.202148
1336.371492	1.859627	0.685834	4191.321777
1336.372390	1.801699	0.685834	5809.247559
1336.373301	1.743812	0.685834	7397.860352
1336.374232	1.688101	0.685834	8969.482422
1336.375142	1.635333	0.685834	10457.635742
1336.376044	1.339417	0.685834	11665.789062
1336.376980	0.124142	0.685834	11781.985352
1336.377891	0.090963	0.685834	11864.852539
1336.378796	0.091003	0.685834	11947.210937
1336.379684	0.090989	0.685834	12028.008789
1336.380632	0.091066	0.685834	12114.338867
1336.381535	0.091055	0.685834	12196.561523
1336.382428	0.091000	0.685834	12277.824219
1336.383341	0.091088	0.685834	12360.987305
1336.384255	0.091055	0.685834	12444.210937
1336.385155	0.090992	0.685834	12526.104492
1337.417710	1.516648	0.670792	711.307861
1337.418613	1.909893	0.670792	2435.940918
1337.419504	1.862468	0.670792	4095.400146
1337.420449	1.802113	0.670792	5798.396973
1337.421364	1.744164	0.670792	7394.306641
1337.422274	1.689273	0.670792	8931.544922
1337.423189	1.636890	0.670792	10429.298828
1337.424122	1.313525	0.670792	11654.818359
1337.425040	0.117931	0.670792	11763.079102
1337.425941	0.090901	0.670792	11844.980469
1337.426831	0.090989	0.670792	11925.960937
1337.427770	0.091084	0.670792	12011.489258
1337.428676	0.091018	0.670792	12093.951172
1337.429585	0.090974	0.670792	12176.646484
1337.430473	0.091033	0.670792	12257.483398
1337.431422	0.091033	0.670792	12343.873047
1337.432326	0.090978	0.670792	12426.117187
1337.433215	0.091018	0.670792	12507.032227
1338.464592	1.476584	0.686688	652.650330
1338.465501	1.910599	0.686688	2389.385254
1338.466416	1.862688	0.686688	4093.744873
1338.467356	1.802651	0.686688	5788.237305
1338.468274	1.744541	0.686688	7389.726074
1338.469171	1.690254	0.686688	8905.883789
1338.470121	1.636446	0.686688	10460.507812
1338.471034	1.310460	0.686688	11656.958008
1338.471941	0.119886	0.686688	11765.695312
1338.472834	0.090974	0.686688	11846.935547
1338.473767	0.091154	0.686688	11931.981445
1338.474679	0.091150	0.686688	12015.110352
1338.475575	0.091066	0.686688	12096.705078
1338.476499	0.091106	0.686688	12180.886719
1338.477410	0.091146	0.686688	12263.920898
1338.478319	0.091102	0.686688	12346.732422
1338.479214	0.091040	0.686688	12428.212891
1338.480154	0.091099	0.686688	12513.845703
1339.512901	1.469392	0.664770	642.124390
1339.513881	1.908633	0.664770	2512.584473
1339.514798	1.858949	0.664770	4217.240723
1339.515696	1.800894	0.664770	5834.443359
1339.516648	1.741531	0.664770	7492.380859
1339.517560	1.686218	0.664770	9030.211914
1339.518465	1.634070	0.664770	10509.044922
1339.519358	1.284727	0.664770	11656.305664
1339.520310	0.108032	0.664770	11759.152344
1339.521222	0.091033	0.664770	11842.173828
1339.522119	0.090996	0.664770	11923.796875
1339.523035	0.091128	0.664770	12007.270508
1339.523952	0.091128	0.664770	12090.834961
1339.524856	0.091014	0.664770	12173.112305
1339.525749	0.091066	0.664770	12254.433594
1339.526692	0.091110	0.664770	12340.349609
1339.527592	0.091080	0.664770	12422.322266
1339.528485	0.091007	0.664770	12503.591797
1340.559179	1.458816	0.701298	634.584961
1340.560121	1.909373	0.701298	2433.213867
1340.561034	1.861703	0.701298	4132.948730
1340.561941	1.803355	0.701298	5768.591309
1340.562835	1.746526	0.701298	7329.985352
1340.563782	1.689240	0.701298	8929.695312
1340.564696	1.636688	0.701298	10425.628906
1340.565604	1.352761	0.701298	11653.936523
1340.566496	0.130686	0.701298	11770.508789
1340.567461	0.091062	0.701298	11858.383789
1340.568362	0.091022	0.701298	11940.394531
1340.569248	0.091080	0.701298	12021.091797
1340.570187	0.091154	0.701298	12106.684570
1340.571089	0.091077	0.701298	12188.835937
1340.571981	0.091011	0.701298	12270.017578
1340.572889	0.091091	0.701298	12352.728516
1340.573815	0.091095	0.701298	12437.082031
1340.574723	0.090981	0.701298	12519.693359
1341.608266	1.456110	0.676460	633.407715
1341.609162	1.910127	0.676460	2344.881348
1341.610115	1.861886	0.676460	4119.258789
1341.611033	1.802827	0.676460	5774.253906
1341.611937	1.745424	0.676460	7352.117187
1341.612870	1.690210	0.676460	8929.083008
1341.613784	1.636871	0.676460	10425.183594
1341.614697	1.338900	0.676460	11647.599609
1341.615596	0.128313	0.676460	11762.953125
1341.616546	0.091007	0.676460	11849.410156
1341.617451	0.090989	0.676460	11931.754883
1341.618340	0.090989	0.676460	12012.643555
1341.619230	0.091036	0.676460	12093.666016
1341.620172	0.091139	0.676460	12179.518555
1341.621077	0.091058	0.676460	12261.926758
1341.621977	0.091073	0.676460	12343.892578
1341.622904	0.091073	0.676460	12428.317383
1341.623813	0.091183	0.676460	12511.202148
1342.655304	1.456359	0.671614	632.059692
1342.656249	1.909369	0.671614	2436.413330
1342.657162	1.861428	0.671614	4135.897461
1342.658068	1.803292	0.671614	5769.680176
1342.658962	1.746152	0.671614	7330.740234
1342.659921	1.688646	0.671614	8950.152344
1342.660827	1.636256	0.671614	10432.600586
1342.661730	1.347458	0.671614	11649.355469
1342.662634	0.129423	0.671614	11766.353516
1342.663576	0.090938	0.671614	11852.016602
1342.664488	0.090916	0.671614	11934.931641
1342.665389	0.090985	0.671614	12016.909180
1342.666277	0.091007	0.671614	12097.723633
1342.667210	0.091055	0.671614	12182.677734
1342.668120	0.091007	0.671614	12265.494141
1342.669036	0.090985	0.671614	12348.836914
1342.669925	0.091055	0.671614	12429.784180
1342.670874	0.091000	0.671614	12516.142578
1343.701712	1.456985	0.699598	638.159363
1343.702607	1.910738	0.699598	2348.270264
1343.703573	1.861209	0.699598	4146.197754
1343.704489	1.802201	0.699598	5797.013672
1343.705390	1.744797	0.699598	7369.076172
1343.706345	1.687775	0.699598	8980.901367
1343.707254	1.635377	0.699598	10467.458984
1343.708159	1.309860	0.699598	11652.881836
1343.709058	0.121948	0.699598	11762.513672
1343.710006	0.090970	0.699598	11848.753906
1343.710915	0.091055	0.699598	11931.522461
1343.711813	0.091051	0.699598	12013.286133
1343.712740	0.091106	0.699598	12097.741211
1343.713640	0.091176	0.699598	12179.798828
1343.714535	0.091077	0.699598	12261.312500
1343.715425	0.091062	0.699598	12342.357422
1343.716385	0.091176	0.699598	12429.885742
1343.717274	0.091117	0.699598	12510.888672
1344.750289	1.476423	0.670840	654.055481
1344.751192	1.910431	0.670840	2379.174561
1344.752083	1.864417	0.670840	4040.369629
1344.753049	1.803098	0.670840	5782.162598
1344.753957	1.745035	0.670840	7366.654785
1344.754865	1.690382	0.670840	8901.521484
1344.755769	1.637695	0.670840	10381.998047
1344.756698	1.342207	0.670840	11628.908203
1344.757620	0.125599	0.670840	11744.710937
1344.758518	0.090996	0.670840	11826.425781
1344.759450	0.091187	0.670840	11911.412109
1344.760349	0.091132	0.670840	11993.339844
1344.761251	0.091062	0.670840	12075.477539
1344.762140	0.091077	0.670840	12156.444336
1344.763078	0.091227	0.670840	12242.014648
1344.763973	0.091047	0.670840	12323.501953
1344.764867	0.091099	0.670840	12404.944336
1344.765767	0.091124	0.670840	12486.956055
1345.797341	1.482407	0.674816	664.118408
1345.798241	1.910420	0.674816	2383.496338
1345.799134	1.863655	0.674816	4047.739990
1345.800087	1.802835	0.674816	5765.841309
1345.801008	1.744640	0.674816	7372.654785
1345.801904	1.690668	0.674816	8887.493164
1345.802825	1.637512	0.674816	10395.641602
1345.803770	1.318304	0.674816	11641.439453
1345.804680	0.121113	0.674816	11751.652344
1345.805567	0.091029	0.674816	11832.395508
1345.806510	0.091190	0.674816	11918.387695
1345.807424	0.091073	0.674816	12001.628906
1345.808313	0.091088	0.674816	12082.605469
1345.809252	0.091132	0.674816	12168.177734
1345.810146	0.091238	0.674816	12249.744141
1345.811050	0.091183	0.674816	12332.173828
1345.811939	0.091047	0.674816	12413.115234
1345.812890	0.091205	0.674816	12499.850586
1346.845384	1.469187	0.670409	643.503906
1346.846352	1.908611	0.670409	2491.039062
1346.847277	1.858934	0.670409	4210.553223
1346.848183	1.800505	0.670409	5841.811035
1346.849122	1.741912	0.670409	7477.465820
1346.850030	1.686511	0.670409	9008.818359
1346.850942	1.634381	0.670409	10499.374023
1346.851837	1.306333	0.670409	11668.541992
1346.852788	0.111152	0.670409	11774.248047
1346.853687	0.091051	0.670409	11856.102539
1346.854583	0.091058	0.670409	11937.690430
1346.855474	0.091099	0.670409	12018.859375
1346.856416	0.091176	0.670409	12104.747070
1346.857324	0.091044	0.670409	12187.415039
1346.858221	0.091025	0.670409	12269.064453
1346.859148	0.091110	0.670409	12353.523437
1346.860049	0.091146	0.670409	12435.646484
1346.860947	0.091132	0.670409	12517.482422
1347.892044	1.460581	0.685233	642.655640
1347.892937	1.909153	0.685233	2347.529297
1347.893905	1.860623	0.685233	4148.611816
1347.894814	1.802402	0.685233	5786.995605
1347.895710	1.744523	0.685233	7350.087891
1347.896676	1.687284	0.685233	8980.003906
1347.897590	1.634887	0.685233	10474.290039
1347.898491	1.315521	0.685233	11659.574219
1347.899423	0.121630	0.685233	11772.932617
1347.900325	0.090989	0.685233	11855.004883
1347.901222	0.091062	0.685233	11936.687500
1347.902107	0.091055	0.685233	12017.270508
1347.903044	0.091084	0.685233	12102.616211
1347.903957	0.091033	0.685233	12185.729492
1347.904858	0.090981	0.685233	12267.704102
1347.905754	0.091044	0.685233	12349.279297
1347.906703	0.091110	0.685233	12435.742187
1347.907608	0.091025	0.685233	12518.120117
1348.940646	1.497004	0.661789	688.622009
1348.941540	1.910072	0.661789	2396.226318
1348.942480	1.860967	0.661789	4145.535156
1348.943391	1.802278	0.661789	5787.410156
1348.944297	1.744878	0.661789	7368.269531
1348.945195	1.689833	0.661789	8885.739258
1348.946147	1.635732	0.661789	10442.957031
1348.947059	1.326390	0.661789	11652.625000
1348.947966	0.122787	0.661789	11763.993164
1348.948903	0.091018	0.661789	11849.277344
1348.949805	0.091110	0.661789	11931.458008
1348.950700	0.090989	0.661789	12012.892578
1348.951586	0.091084	0.661789	12093.592773
1348.952524	0.091058	0.661789	12179.005859
1348.953428	0.090967	0.661789	12261.240234
1348.954332	0.090981	0.661789	12343.487305
1348.955219	0.090992	0.661789	12424.197266
1348.956170	0.091128	0.661789	12510.860352
1349.986771	1.483616	0.685435	661.692627
1349.987676	1.910164	0.685435	2390.390625
1349.988570	1.863970	0.685435	4056.779541
1349.989489	1.805072	0.685435	5715.640625
1349.990444	1.744728	0.685435	7381.855469
1349.991352	1.689880	0.685435	8916.266602
1349.992246	1.638230	0.685435	10380.843750
1349.993192	1.333623	0.685435	11642.451172
1349.994104	0.125863	0.685435	11757.238281
1349.995026	0.090945	0.685435	11841.089844
1349.995910	0.091062	0.685435	11921.588867
1349.996848	0.091011	0.685435	12006.957031
1349.997746	0.091033	0.685435	12088.704102
1349.998638	0.091036	0.685435	12169.908203
1349.999565	0.091080	0.685435	12254.339844
1350.000486	0.091011	0.685435	12338.161133
1350.001393	0.091036	0.685435	12420.731445
1350.002290	0.091047	0.685435	12502.401367
1351.035979	1.467572	0.681427	644.264099
1351.036908	1.909823	0.681427	2418.489502
1351.037820	1.862032	0.681427	4116.663086
1351.038764	1.802216	0.681427	5817.954590
1351.039666	1.744395	0.681427	7391.398437
1351.040578	1.689485	0.681427	8932.208984
1351.041471	1.637545	0.681427	10394.537109
1351.042407	1.331188	0.681427	11640.529297
1351.043322	0.122805	0.681427	11752.896484
1351.044224	0.090930	0.681427	11834.915039
1351.045114	0.090989	0.681427	11915.895508
1351.046067	0.091113	0.681427	12002.726562
1351.046980	0.091022	0.681427	12085.829102
1351.047876	0.091047	0.681427	12167.407227
1351.048810	0.091073	0.681427	12252.469727
1351.049713	0.091121	0.681427	12334.751953
1351.050609	0.091040	0.681427	12416.324219
1351.051493	0.091055	0.681427	12496.816406
1352.081485	1.467246	0.664588	647.055481
1352.082457	1.908754	0.664588	2502.364014
1352.083386	1.858550	0.664588	4228.956543
1352.084295	1.799725	0.664588	5864.906738
1352.085230	1.741362	0.664588	7493.080566
1352.086139	1.686020	0.664588	9025.672852
1352.087043	1.634022	0.664588	10502.829102
1352.087938	1.302294	0.664588	11668.381836
1352.088883	0.111240	0.664588	11773.503906
1352.089776	0.090967	0.664588	11854.737305
1352.090674	0.091047	0.664588	11936.498047
1352.091590	0.091121	0.664588	12019.964844
1352.092486	0.091025	0.664588	12101.523437
1352.093439	0.091106	0.664588	12188.347656
1352.094338	0.091080	0.664588	12270.228516
1352.095225	0.091099	0.664588	12351.033203
1352.096153	0.091124	0.664588	12435.596680
1352.097068	0.091139	0.664588	12518.989258
1353.131465	1.469513	0.654852	646.585693
1353.132438	1.908658	0.654852	2503.710449
1353.133358	1.859103	0.654852	4214.084961
1353.134258	1.800839	0.654852	5834.839844
1353.135198	1.741743	0.654852	7472.078613
1353.136113	1.686218	0.654852	9014.968750
1353.137022	1.634216	0.654852	10500.471680
1353.137924	1.286971	0.654852	11661.320312
1353.138889	0.105095	0.654852	11762.737305
1353.139799	0.091007	0.654852	11845.553711
1353.140707	0.091080	0.654852	11928.254883
1353.141596	0.091069	0.654852	12009.215820
1353.142544	0.091165	0.654852	12095.639648
1353.143449	0.091121	0.654852	12178.103516
1353.144342	0.091084	0.654852	12259.441406
1353.145267	0.091190	0.654852	12343.791992
1353.146173	0.091124	0.654852	12426.350586
1353.147073	0.091121	0.654852	12508.359375
1354.176338	1.480140	0.671650	657.182312
1354.177250	1.910277	0.671650	2399.354980
1354.178147	1.862519	0.671650	4070.034912
1354.179113	1.801758	0.671650	5810.533203
1354.180028	1.743530	0.671650	7405.863281
1354.180929	1.689042	0.671650	8927.689453
1354.181872	1.635590	0.671650	10470.050781
1354.182778	1.308937	0.671650	11655.947266
1354.183686	0.119678	0.671650	11764.614258
1354.184573	0.090948	0.671650	11845.285156
1354.185519	0.091099	0.671650	11931.464844
1354.186427	0.091007	0.671650	12014.099609
1354.187319	0.091110	0.671650	12095.369141
1354.188243	0.091069	0.671650	12179.517578
1354.189130	0.091113	0.671650	12260.334961
1354.190094	0.091077	0.671650	12348.132812
1354.190987	0.091058	0.671650	12429.448242
1354.191874	0.091033	0.671650	12510.194336
1355.226708	1.478533	0.662945	663.861145
1355.227606	1.910299	0.662945	2379.309570
1355.228570	1.860765	0.662945	4173.087402
1355.229477	1.801908	0.662945	5807.417969
1355.230380	1.744439	0.662945	7382.645996
1355.231270	1.690093	0.662945	8886.828125
1355.232216	1.636132	0.662945	10434.608398
1355.233132	1.323787	0.662945	11647.197266
1355.234037	0.123864	0.662945	11759.293945
1355.234975	0.091011	0.662945	11844.662109
1355.235889	0.091154	0.662945	11927.976562
1355.236794	0.091029	0.662945	12010.357422
1355.237681	0.091047	0.662945	12091.116211
1355.238620	0.091194	0.662945	12176.747070
1355.239522	0.091139	0.662945	12258.954102
1355.240420	0.091091	0.662945	12340.753906
1355.241307	0.091047	0.662945	12421.512695
1355.242243	0.091183	0.662945	12506.859375
1356.271327	1.467682	0.670840	673.666016
1356.272264	1.909036	0.670840	2462.432373
1356.273188	1.859601	0.670840	4180.703613
1356.274093	1.801201	0.670840	5810.791016
1356.275030	1.742377	0.670840	7443.397949
1356.275940	1.687203	0.670840	8978.752930
1356.276849	1.635022	0.670840	10464.988281
1356.277740	1.301960	0.670840	11625.035156
1356.278694	0.113467	0.670840	11733.282227
1356.279588	0.090970	0.670840	11814.609375
1356.280487	0.091033	0.670840	11896.448242
1356.281422	0.091150	0.670840	11981.673828
1356.282326	0.091128	0.670840	12064.053711
1356.283235	0.091047	0.670840	12146.815430
1356.284132	0.091055	0.670840	12228.491211
1356.285063	0.091154	0.670840	12313.355469
1356.285964	0.091025	0.670840	12395.369141
1356.286861	0.091095	0.670840	12477.081055
1357.321715	1.512697	0.665813	698.865784
1357.322635	1.909457	0.665813	2455.565918
1357.323547	1.861077	0.665813	4152.867676
1357.324438	1.802640	0.665813	5759.020508
1357.325380	1.744072	0.665813	7401.936523
1357.326297	1.688785	0.665813	8950.552734
1357.327194	1.637157	0.665813	10419.082031
1357.328140	1.306135	0.665813	11654.685547
1357.329044	0.118583	0.665813	11761.884766
1357.329951	0.090927	0.665813	11844.355469
1357.330841	0.091099	0.665813	11925.433594
1357.331781	0.091132	0.665813	12011.097656
1357.332689	0.091110	0.665813	12093.825195
1357.333593	0.091029	0.665813	12176.115234
1357.334483	0.091040	0.665813	12257.140625
1357.335418	0.091198	0.665813	12342.410156
1357.336324	0.091055	0.665813	12424.905273
1357.337216	0.091084	0.665813	12506.152344
1358.366166	1.471791	0.667896	659.362244
1358.367067	1.910336	0.667896	2380.574463
1358.368000	1.862498	0.667896	4118.284668
1358.368921	1.802721	0.667896	5778.590820
1358.369833	1.744871	0.667896	7369.912598
1358.370729	1.690682	0.667896	8884.763672
1358.371689	1.636073	0.667896	10455.393555
1358.372589	1.327745	0.667896	11650.364258
1358.373492	0.124296	0.667896	11762.603516
1358.374387	0.091003	0.667896	11844.051758
1358.375334	0.091135	0.667896	11930.356445
1358.376240	0.090959	0.667896	12012.765625
1358.377132	0.091040	0.667896	12093.973633
1358.378066	0.091095	0.667896	12179.056641
1358.378962	0.091040	0.667896	12260.628906
1358.379864	0.091003	0.667896	12342.713867
1358.380750	0.091036	0.667896	12423.372070
1358.381696	0.091146	0.667896	12509.596680
1359.417035	1.461658	0.665696	635.821106
1359.417980	1.908878	0.665696	2439.710937
1359.418907	1.860194	0.665696	4164.110840
1359.419816	1.801952	0.665696	5802.084961
1359.420710	1.744636	0.665696	7361.789551
1359.421662	1.687716	0.665696	8968.495117
1359.422585	1.634846	0.665696	10477.458008
1359.423494	1.302788	0.665696	11661.692383
1359.424427	0.119484	0.665696	11773.170898
1359.425334	0.091088	0.665696	11855.787109
1359.426243	0.091040	0.665696	11938.542969
1359.427136	0.091099	0.665696	12019.894531
1359.428053	0.091168	0.665696	12103.496094
1359.428960	0.091157	0.665696	12186.175781
1359.429859	0.091025	0.665696	12268.007812
1359.430746	0.091102	0.665696	12348.815430
1359.431692	0.091183	0.665696	12435.074219
1359.432596	0.091069	0.665696	12517.401367
1360.461048	1.477101	0.656411	713.439697
1360.461972	1.908948	0.656411	2477.307617
1360.462879	1.860044	0.656411	4164.367676
1360.463774	1.802571	0.656411	5777.668457
1360.464731	1.741945	0.656411	7444.709473
1360.465640	1.687097	0.656411	8978.281250
1360.466547	1.635132	0.656411	10461.345703
1360.467440	1.272169	0.656411	11597.392578
1360.468395	0.111863	0.656411	11704.221680
1360.469302	0.090967	0.656411	11786.728516
1360.470195	0.091018	0.656411	11868.007812
1360.471130	0.091117	0.656411	11953.202148
1360.472039	0.091095	0.656411	12036.007812
1360.472943	0.091014	0.656411	12118.285156
1360.473831	0.091047	0.656411	12199.134766
1360.474774	0.091113	0.656411	12285.054687
1360.475676	0.091091	0.656411	12367.218750
1360.476570	0.091025	0.656411	12448.595703
1361.512404	1.475486	0.644004	661.017639
1361.513305	1.910281	0.644004	2382.180664
1361.514245	1.862300	0.644004	4132.742676
1361.515159	1.802904	0.644004	5780.596680
1361.516077	1.744449	0.644004	7382.001465
1361.516973	1.690280	0.644004	8896.492187
1361.517906	1.636505	0.644004	10423.351562
1361.518825	1.326921	0.644004	11642.791992
1361.519731	0.124581	0.644004	11755.663086
1361.520626	0.091036	0.644004	11837.140625
1361.521582	0.091143	0.644004	11924.272461
1361.522490	0.090989	0.644004	12006.890625
1361.523387	0.091099	0.644004	12088.606445
1361.524318	0.091099	0.644004	12173.418945
1361.525220	0.091139	0.644004	12255.625977
1361.526118	0.091018	0.644004	12337.360352
1361.527002	0.091066	0.644004	12417.862305
1361.527941	0.091132	0.644004	12503.434570
1362.555994	1.486769	0.648729	670.532776
1362.556891	1.910263	0.648729	2384.038330
1362.557846	1.860458	0.648729	4160.775391
1362.558773	1.800795	0.648729	5830.112305
1362.559682	1.742974	0.648729	7414.475586
1362.560574	1.688364	0.648729	8920.496094
1362.561527	1.634879	0.648729	10478.536133
1362.562441	1.294647	0.648729	11661.843750
1362.563335	0.118989	0.648729	11768.219727
1362.564267	0.090970	0.648729	11853.003906
1362.565177	0.091080	0.648729	11935.886719
1362.566076	0.091051	0.648729	12017.741211
1362.566964	0.091055	0.648729	12098.597656
1362.567902	0.091179	0.648729	12184.124023
1362.568810	0.091077	0.648729	12266.821289
1362.569718	0.091084	0.648729	12349.525391
1362.570604	0.091007	0.648729	12430.157227
1362.571541	0.091099	0.648729	12515.516602
1363.607552	1.508262	0.639198	740.556458
1363.608467	1.908373	0.639198	2486.717529
1363.609380	1.859535	0.639198	4184.472656
1363.610273	1.801769	0.639198	5793.452148
1363.611223	1.741798	0.639198	7448.160156
1363.612135	1.687068	0.639198	8986.765625
1363.613035	1.635238	0.639198	10458.479492
1363.613958	1.275319	0.639198	11635.598633
1363.614883	0.114595	0.639198	11741.598633
1363.615792	0.090919	0.639198	11824.244141
1363.616685	0.091084	0.639198	11905.582031
1363.617615	0.091121	0.639198	11990.324219
1363.618517	0.091084	0.639198	12072.482422
1363.619415	0.091077	0.639198	12154.269531
1363.620306	0.091091	0.639198	12235.431641
1363.621258	0.091168	0.639198	12322.223633
1363.622156	0.091058	0.639198	12403.994141
1363.623049	0.091088	0.639198	12485.334961
1364.650870	1.523712	0.655875	731.381836
1364.651798	1.908146	0.655875	2502.141113
1364.652714	1.859352	0.655875	4205.307617
1364.653610	1.800590	0.655875	5818.635742
1364.654569	1.740923	0.655875	7488.180664
1364.655479	1.686284	0.655875	9022.699219
1364.656377	1.634374	0.655875	10490.367187
1364.657318	1.254327	0.655875	11670.689453
1364.658235	0.111196	0.655875	11772.656250
1364.659125	0.090916	0.655875	11853.571289
1364.660016	0.091088	0.655875	11934.730469
1364.660945	0.091069	0.655875	12019.333984
1364.661847	0.091036	0.655875	12101.449219
1364.662750	0.091099	0.655875	12183.710937
1364.663637	0.090970	0.655875	12264.401367
1364.664570	0.091110	0.655875	12349.406250
1364.665475	0.091025	0.655875	12431.784180
1364.666366	0.091058	0.655875	12512.916992
1365.702243	1.501490	0.640656	687.682617
1365.703147	1.909728	0.640656	2414.076660
1365.704096	1.860381	0.640656	4179.578125
1365.705012	1.800890	0.640656	5829.193359
1365.705915	1.743501	0.640656	7403.574707
1365.706809	1.689199	0.640656	8913.718750
1365.707756	1.635619	0.640656	10462.649414
1365.708668	1.307988	0.640656	11655.535156
1365.709568	0.120681	0.640656	11764.148437
1365.710495	0.090952	0.640656	11848.460937
1365.711405	0.091132	0.640656	11931.390625
1365.712314	0.091033	0.640656	12014.139648
1365.713213	0.091011	0.640656	12095.958008
1365.714140	0.091194	0.640656	12180.495117
1365.715047	0.091007	0.640656	12263.038086
1365.715948	0.091102	0.640656	12345.121094
1365.716837	0.091029	0.640656	12426.045898
1365.717775	0.091157	0.640656	12511.551758
1366.746052	1.451697	0.651589	625.681274
1366.746988	1.908307	0.651589	2411.856445
1366.747937	1.859711	0.651589	4176.721680
1366.748856	1.800205	0.651589	5831.110352
1366.749766	1.742787	0.651589	7417.046387
1366.750705	1.686544	0.651589	9000.710937
1366.751613	1.634059	0.651589	10484.436523
1366.752526	1.291168	0.651589	11663.273437
1366.753416	0.118744	0.651589	11768.955078
1366.754360	0.091044	0.651589	11854.900391
1366.755270	0.091014	0.651589	11937.723633
1366.756162	0.091102	0.651589	12018.987305
1366.757081	0.091110	0.651589	12102.716797
1366.757986	0.091208	0.651589	12185.260742
1366.758879	0.091007	0.651589	12266.530273
1366.759769	0.091066	0.651589	12347.579102
1366.760694	0.091157	0.651589	12431.899414
1366.761603	0.091190	0.651589	12514.791016
1367.797373	1.541038	0.641981	744.321167
1367.798288	1.908706	0.641981	2490.787109
1367.799200	1.860048	0.641981	4187.150391
1367.800098	1.801370	0.641981	5804.780273
1367.801048	1.742040	0.641981	7459.718262
1367.801962	1.687127	0.641981	9001.751953
1367.802863	1.634978	0.641981	10474.867187
1367.803818	1.251478	0.641981	11670.029297
1367.804728	0.110570	0.641981	11770.648437
1367.805625	0.090981	0.641981	11852.258789
1367.806510	0.091025	0.641981	11932.816406
1367.807460	0.091099	0.641981	12019.360352
1367.808374	0.091095	0.641981	12102.621094
1367.809270	0.091150	0.641981	12184.291016
1367.810180	0.091055	0.641981	12267.150391
1367.811105	0.091091	0.641981	12351.410156
1367.812005	0.091110	0.641981	12433.409180
1367.812898	0.091022	0.641981	12514.691406
1368.841187	1.489537	0.658336	670.291809
1368.842089	1.909944	0.658336	2393.061279
1368.842980	1.863640	0.658336	4053.564697
1368.843926	1.803234	0.658336	5759.423828
1368.844835	1.745054	0.658336	7345.677734
1368.845749	1.690280	0.658336	8890.593750
1368.846641	1.638065	0.658336	10351.748047
1368.847589	1.357046	0.658336	11638.227539
1368.848509	0.126621	0.658336	11754.718750
1368.849407	0.091003	0.658336	11836.439453
1368.850334	0.091143	0.658336	11920.928711
1368.851227	0.091110	0.658336	12002.290039
1368.852133	0.091022	0.658336	12084.755859
1368.853020	0.090996	0.658336	12165.469727
1368.853962	0.091176	0.658336	12251.357422
1368.854863	0.091110	0.658336	12333.447266
1368.855765	0.091047	0.658336	12415.572266
1368.856653	0.091051	0.658336	12496.425781
1369.892422	1.456761	0.635403	632.234497
1369.893366	1.908417	0.635403	2433.779785
1369.894293	1.860293	0.635403	4158.271484
1369.895209	1.801201	0.635403	5808.171875
1369.896115	1.743834	0.635403	7388.085937
1369.897055	1.687570	0.635403	8974.401367
1369.897974	1.634553	0.635403	10476.555664
1369.898881	1.303960	0.635403	11659.247070
1369.899772	0.120981	0.635403	11767.041992
1369.900713	0.091036	0.635403	11852.707031
1369.901621	0.091051	0.635403	11935.381836
1369.902512	0.091033	0.635403	12016.492187
1369.903440	0.091084	0.635403	12101.018555
1369.904350	0.091139	0.635403	12183.955078
1369.905249	0.091044	0.635403	12265.803711
1369.906135	0.091110	0.635403	12346.526367
1369.907100	0.091124	0.635403	12434.460937
1369.908006	0.091066	0.635403	12516.966797
1370.936136	1.456293	0.641510	634.943665
1370.937115	1.908314	0.641510	2503.183350
1370.938029	1.858762	0.641510	4202.091797
1370.938932	1.800659	0.641510	5828.086914
1370.939843	1.742465	0.641510	7415.472168
1370.940769	1.686899	0.641510	8977.541016
1370.941687	1.634066	0.641510	10477.613281
1370.942590	1.302305	0.641510	11653.594727
1370.943540	0.115906	0.641510	11763.705078
1370.944443	0.091044	0.641510	11845.917969
1370.945346	0.091121	0.641510	11928.200195
1370.946233	0.091044	0.641510	12008.956055
1370.947171	0.091208	0.641510	12094.509766
1370.948082	0.091113	0.641510	12177.513672
1370.948974	0.091047	0.641510	12258.727539
1370.949888	0.091110	0.641510	12342.001953
1370.950808	0.091124	0.641510	12425.835937
1370.951721	0.091029	0.641510	12508.945312
1371.987150	1.466986	0.648721	638.138916
1371.988060	1.909753	0.648721	2376.014648
1371.988969	1.862827	0.648721	4069.324707
1371.989913	1.803417	0.648721	5771.750000
1371.990819	1.745134	0.648721	7352.841797
1371.991723	1.690338	0.648721	8880.907227
1371.992617	1.638867	0.648721	10346.054687
1371.993563	1.363506	0.648721	11635.931641
1371.994473	0.130704	0.648721	11754.873047
1371.995367	0.090970	0.648721	11836.200195
1371.996258	0.091025	0.648721	11917.303711
1371.997207	0.091117	0.648721	12003.773437
1371.998113	0.091029	0.648721	12086.246094
1371.999009	0.091000	0.648721	12167.782227
1371.999940	0.091146	0.648721	12252.639648
1372.000835	0.091117	0.648721	12334.189453
1372.001729	0.091003	0.648721	12415.546875
1372.002616	0.091069	0.648721	12496.325195
1373.031262	1.489358	0.633566	673.189819
1373.032167	1.909475	0.633566	2401.264648
1373.033112	1.861252	0.633566	4160.147949
1373.034019	1.802150	0.633566	5794.697754
1373.034928	1.744149	0.633566	7380.129395
1373.035824	1.690082	0.633566	8894.442383
1373.036757	1.636490	0.633566	10421.288086
1373.037667	1.336578	0.633566	11637.574219
1373.038584	0.125229	0.633566	11752.409180
1373.039473	0.090992	0.633566	11833.301758
1373.040429	0.091139	0.633566	11920.430664
1373.041333	0.091033	0.633566	12002.724609
1373.042233	0.091077	0.633566	12084.693359
1373.043156	0.091088	0.633566	12168.767578
1373.044059	0.091190	0.633566	12251.112305
1373.044957	0.091007	0.633566	12332.836914
1373.045869	0.091051	0.633566	12415.875000
1373.046767	0.091036	0.633566	12497.625977
1374.082123	1.461610	0.644797	637.262024
1374.083072	1.908424	0.644797	2448.356445
1374.083992	1.860091	0.644797	4159.640625
1374.084901	1.801611	0.644797	5797.305176
1374.085795	1.744578	0.644797	7356.957520
1374.086761	1.687152	0.644797	8986.746094
1374.087668	1.634630	0.644797	10469.355469
1374.088575	1.310024	0.644797	11657.547852
1374.089473	0.121157	0.644797	11766.346680
1374.090410	0.091066	0.644797	11851.674805
1374.091306	0.091014	0.644797	11933.223633
1374.092204	0.091033	0.644797	12014.970703
1374.093128	0.091091	0.644797	12099.138672
1374.094034	0.091168	0.644797	12181.737305
1374.094935	0.091051	0.644797	12263.774414
1374.095822	0.091022	0.644797	12344.510742
1374.096783	0.091132	0.644797	12432.087891
1374.097681	0.091091	0.644797	12513.887695
1375.126402	1.513239	0.639959	747.539856
1375.127321	1.908355	0.639959	2501.317627
1375.128228	1.859260	0.639959	4187.666504
1375.129123	1.801208	0.639959	5799.748047
1375.130067	1.741959	0.639959	7444.157715
1375.130979	1.687277	0.639959	8982.954102
1375.131876	1.635319	0.639959	10449.834961
1375.132795	1.272858	0.639959	11619.590820
1375.133730	0.113005	0.639959	11725.250977
1375.134639	0.090868	0.639959	11807.849609
1375.135539	0.091018	0.639959	11889.765625
1375.136462	0.091069	0.639959	11973.822266
1375.137364	0.091047	0.639959	12055.947266
1375.138263	0.091000	0.639959	12137.755859
1375.139149	0.091080	0.639959	12218.453125
1375.140106	0.091088	0.639959	12305.624023
1375.141012	0.091040	0.639959	12388.106445
1375.141906	0.091018	0.639959	12469.476562
1376.177366	1.471117	0.644551	653.175964
1376.178264	1.910142	0.644551	2368.483154
1376.179158	1.863600	0.644551	4034.541504
1376.180105	1.803893	0.644551	5742.828125
1376.181022	1.745552	0.644551	7343.499023
1376.181920	1.691415	0.644551	8862.389648
1376.182857	1.638347	0.644551	10397.520508
1376.183774	1.358994	0.644551	11643.717773
1376.184685	0.129441	0.644551	11761.638672
1376.185570	0.090883	0.644551	11842.069336
1376.186514	0.091135	0.644551	11928.100586
1376.187416	0.091143	0.644551	12010.311523
1376.188309	0.091036	0.644551	12091.607422
1376.189197	0.091106	0.644551	12172.509766
1376.190136	0.091132	0.644551	12258.082031
1376.191040	0.091069	0.644551	12340.409180
1376.191938	0.091033	0.644551	12422.156250
1376.192869	0.091062	0.644551	12506.934570
1377.221451	1.459988	0.630944	639.474609
1377.222344	1.909515	0.630944	2344.671875
1377.223305	1.861245	0.630944	4133.328613
1377.224223	1.802091	0.630944	5787.648437
1377.225128	1.744530	0.630944	7366.448242
1377.226061	1.688738	0.630944	8942.041016
1377.226966	1.636531	0.630944	10423.101562
1377.227874	1.349615	0.630944	11648.552734
1377.228809	0.122893	0.630944	11763.458008
1377.229695	0.090963	0.630944	11844.051758
1377.230610	0.091003	0.630944	11927.320312
1377.231527	0.090989	0.630944	12010.756836
1377.232442	0.090996	0.630944	12094.018555
1377.233332	0.091033	0.630944	12175.038086
1377.234286	0.091066	0.630944	12261.915039
1377.235184	0.090996	0.630944	12343.629883
1377.236074	0.091124	0.630944	12424.730469
1377.237015	0.091110	0.630944	12510.464844
1378.272329	1.467114	0.642171	642.596008
1378.273295	1.908593	0.642171	2486.296387
1378.274215	1.859341	0.642171	4196.890137
1378.275111	1.800996	0.642171	5810.582520
1378.276045	1.742545	0.642171	7438.119629
1378.276965	1.686658	0.642171	8989.844727
1378.277876	1.634473	0.642171	10478.849609
1378.278775	1.305527	0.642171	11652.518555
1378.279725	0.109369	0.642171	11756.418945
1378.280620	0.091062	0.642171	11837.919922
1378.281519	0.091047	0.642171	11919.771484
1378.282419	0.091077	0.642171	12001.740234
1378.283353	0.091102	0.642171	12086.830078
1378.284254	0.090985	0.642171	12168.807617
1378.285149	0.091003	0.642171	12250.255859
1378.286087	0.091128	0.642171	12335.733398
1378.286997	0.091110	0.642171	12418.643555
1378.287896	0.091062	0.642171	12500.507812
1379.316309	1.474336	0.637300	648.707825
1379.317219	1.909724	0.637300	2386.556885
1379.318121	1.863204	0.637300	4067.167236
1379.319027	1.805050	0.637300	5702.542480
1379.319965	1.745647	0.637300	7339.959473
1379.320878	1.690573	0.637300	8883.452148
1379.321773	1.638816	0.637300	10350.192383
1379.322717	1.361305	0.637300	11635.264648
1379.323625	0.129591	0.637300	11752.933594
1379.324528	0.090948	0.637300	11835.060547
1379.325444	0.091066	0.637300	11918.476562
1379.326337	0.091014	0.637300	11999.751953
1379.327288	0.090963	0.637300	12086.257812
1379.328192	0.091029	0.637300	12168.547852
1379.329080	0.091055	0.637300	12249.404297
1379.330011	0.091062	0.637300	12334.182617
1379.330921	0.091113	0.637300	12417.095703
1379.331817	0.091003	0.637300	12498.634766
1380.367341	1.508709	0.624627	707.584351
1380.368235	1.909699	0.624627	2414.854980
1380.369180	1.860831	0.624627	4173.340820
1380.370079	1.801677	0.624627	5793.048828
1380.370990	1.744146	0.624627	7381.965332
1380.371885	1.690049	0.624627	8894.558594
1380.372837	1.635505	0.624627	10451.559570
1380.373749	1.316539	0.624627	11652.243164
1380.374664	0.119363	0.624627	11761.459961
1380.375574	0.091084	0.624627	11844.346680
1380.376497	0.091150	0.624627	11928.478516
1380.377404	0.090981	0.624627	12010.999023
1380.378296	0.091014	0.624627	12092.183594
1380.379236	0.091091	0.624627	12177.809570
1380.380138	0.091073	0.624627	12259.957031
1380.381041	0.091040	0.624627	12342.166016
1380.381931	0.091040	0.624627	12423.191406
1380.382874	0.091099	0.624627	12509.097656
1381.411270	1.460149	0.630046	633.704651
1381.412213	1.908311	0.630046	2433.241455
1381.413145	1.860099	0.630046	4166.853516
1381.414057	1.801011	0.630046	5809.375000
1381.414960	1.743907	0.630046	7384.123535
1381.415852	1.689935	0.630046	8891.545898
1381.416810	1.635308	0.630046	10458.170898
1381.417716	1.292168	0.630046	11628.875000
1381.418657	0.115792	0.630046	11737.835937
1381.419544	0.090905	0.630046	11818.468750
1381.420495	0.090989	0.630046	11904.999023
1381.421399	0.090970	0.630046	11987.236328
1381.422289	0.091033	0.630046	12068.255859
1381.423217	0.091055	0.630046	12152.754883
1381.424124	0.091051	0.630046	12235.337891
1381.425040	0.090996	0.630046	12318.690430
1381.425928	0.091000	0.630046	12399.498047
1381.426866	0.091110	0.630046	12484.958984
1382.462334	1.514399	0.643657	745.084534
1382.463248	1.908607	0.643657	2489.551514
1382.464153	1.860128	0.643657	4172.967285
1382.465046	1.801937	0.643657	5782.097168
1382.465988	1.742435	0.643657	7423.471191
1382.466910	1.687203	0.643657	8979.072266
1382.467811	1.635275	0.643657	10452.455078
1382.468741	1.275992	0.643657	11639.127930
1382.469670	0.112544	0.643657	11743.681641
1382.470579	0.090919	0.643657	11826.327148
1382.471477	0.091014	0.643657	11908.057617
1382.472423	0.091110	0.643657	11994.247070
1382.473318	0.091110	0.643657	12075.790039
1382.474213	0.091011	0.643657	12157.245117
1382.475102	0.091044	0.643657	12238.182617
1382.476030	0.091146	0.643657	12322.766602
1382.476942	0.091051	0.643657	12405.804687
1382.477838	0.091040	0.643657	12487.376953
1383.506247	1.463339	0.632926	640.942322
1383.507159	1.909699	0.632926	2382.587402
1383.508062	1.863362	0.632926	4065.203125
1383.509006	1.803160	0.632926	5767.386719
1383.509917	1.744819	0.632926	7356.916992
1383.510828	1.689734	0.632926	8896.264648
1383.511753	1.636904	0.632926	10410.401367
1383.512642	1.345422	0.632926	11606.481445
1383.513607	0.123457	0.632926	11725.617187
1383.514505	0.090901	0.632926	11807.246094
1383.515394	0.090992	0.632926	11888.138672
1383.516323	0.091069	0.632926	11972.742187
1383.517235	0.091036	0.632926	12055.767578
1383.518147	0.091055	0.632926	12138.809570
1383.519044	0.091055	0.632926	12220.485352
1383.520006	0.091106	0.632926	12308.128906
1383.520926	0.091110	0.632926	12391.950195
1383.521844	0.091073	0.632926	12475.555664
1384.557513	1.466876	0.618939	645.425476
1384.558409	1.908977	0.618939	2355.868896
1384.559386	1.859985	0.618939	4173.074219
1384.560302	1.801029	0.618939	5822.816895
1384.561198	1.743845	0.618939	7385.302246
1384.562133	1.688196	0.618939	8963.765625
1384.563042	1.635754	0.618939	10450.666016
1384.563944	1.330986	0.618939	11651.215820
1384.564838	0.126705	0.618939	11764.490234
1384.565777	0.091073	0.618939	11850.007812
1384.566689	0.091051	0.618939	11933.045898
1384.567586	0.091000	0.618939	12014.672852
1384.568489	0.091117	0.618939	12096.951172
1384.569421	0.091179	0.618939	12181.930664
1384.570324	0.090978	0.618939	12264.083984
1384.571218	0.091058	0.618939	12345.490234
1384.572142	0.091179	0.618939	12429.740234
1384.573041	0.091084	0.618939	12511.625000
1385.601230	1.467176	0.625179	649.959167
1385.602131	1.910083	0.625179	2370.944092
1385.603085	1.860769	0.625179	4146.117676
1385.604009	1.800802	0.625179	5810.058594
1385.604941	1.742226	0.625179	7433.813477
1385.605835	1.687467	0.625179	8942.409180
1385.606800	1.633250	0.625179	10518.495117
1385.607701	1.273392	0.625179	11665.821289
1385.608599	0.115283	0.625179	11769.345703
1385.609544	0.090985	0.625179	11855.326172
1385.610434	0.091066	0.625179	11936.375000
1385.611347	0.091022	0.625179	12019.477539
1385.612242	0.090974	0.625179	12100.899414
1385.613183	0.091066	0.625179	12186.591797
1385.614092	0.091055	0.625179	12269.360352
1385.614980	0.091040	0.625179	12350.204102
1385.615924	0.091069	0.625179	12436.173828
1385.616831	0.091011	0.625179	12518.720703
1386.652491	1.467752	0.617042	642.875183
1386.653404	1.909860	0.617042	2386.577148
1386.654307	1.863007	0.617042	4068.872070
1386.655247	1.803424	0.617042	5764.090820
1386.656160	1.744856	0.617042	7357.144531
1386.657067	1.690400	0.617042	8890.337891
1386.657957	1.638640	0.617042	10348.727539
1386.658901	1.351717	0.617042	11624.749023
1386.659817	0.128566	0.617042	11742.515625
1386.660713	0.090945	0.617042	11824.001953
1386.661626	0.091025	0.617042	11907.108398
1386.662555	0.091099	0.617042	11991.739258
1386.663462	0.090981	0.617042	12074.259766
1386.664355	0.091077	0.617042	12155.590820
1386.665285	0.091080	0.617042	12240.295898
1386.666178	0.091135	0.617042	12321.679687
1386.667075	0.091029	0.617042	12403.333008
1386.667962	0.091040	0.617042	12484.085937
1387.696245	1.522138	0.614540	715.404663
1387.697161	1.908062	0.614540	2463.188965
1387.698091	1.859249	0.614540	4192.291016
1387.698985	1.800509	0.614540	5801.946289
1387.699950	1.740648	0.614540	7481.671875
1387.700852	1.686412	0.614540	9002.815430
1387.701745	1.634246	0.614540	10462.196289
1387.702709	1.233896	0.614540	11651.672852
1387.703615	0.109160	0.614540	11750.572266
1387.704504	0.090875	0.614540	11831.360352
1387.705442	0.091058	0.614540	11916.773437
1387.706336	0.091029	0.614540	11998.153320
1387.707242	0.090967	0.614540	12080.569336
1387.708129	0.091055	0.614540	12161.334961
1387.709060	0.091154	0.614540	12246.199219
1387.709971	0.091091	0.614540	12329.183594
1387.710874	0.091040	0.614540	12411.392578
1387.711763	0.091062	0.614540	12492.346680
1388.747464	1.459358	0.613533	636.280090
1388.748414	1.908439	0.613533	2449.296875
1388.749336	1.860044	0.613533	4164.257324
1388.750245	1.801351	0.613533	5801.685547
1388.751140	1.744065	0.613533	7362.623535
1388.752094	1.687376	0.613533	8972.379883
1388.753010	1.634993	0.613533	10470.033203
1388.753910	1.322728	0.613533	11660.488281
1388.754846	0.123596	0.613533	11776.173828
1388.755752	0.090970	0.613533	11858.592773
1388.756659	0.091051	0.613533	11941.175781
1388.757556	0.090978	0.613533	12022.783203
1388.758495	0.091073	0.613533	12108.300781
1388.759399	0.091088	0.613533	12190.643555
1388.760305	0.091011	0.613533	12273.099609
1388.761197	0.091051	0.613533	12354.317383
1388.762145	0.091143	0.613533	12440.720703
1388.763053	0.091077	0.613533	12523.417969
1389.791431	1.460167	0.625353	641.013428
1389.792413	1.907684	0.625353	2514.359375
1389.793317	1.858861	0.625353	4194.769531
1389.794211	1.801117	0.625353	5804.967773
1389.795140	1.742644	0.625353	7423.883789
1389.796064	1.686453	0.625353	8982.166016
1389.796980	1.634055	0.625353	10478.960937
1389.797880	1.306695	0.625353	11654.986328
1389.798821	0.113503	0.625353	11761.792969
1389.799738	0.090963	0.625353	11845.206055
1389.800637	0.091044	0.625353	11927.054687
1389.801526	0.091077	0.625353	12008.021484
1389.802453	0.091066	0.625353	12092.439453
1389.803350	0.090992	0.625353	12174.059570
1389.804236	0.090941	0.625353	12254.633789
1389.805169	0.091150	0.625353	12339.676758
1389.806077	0.091062	0.625353	12422.361328
1389.806981	0.091058	0.625353	12504.677734
1390.842319	1.473955	0.630440	650.014160
1390.843223	1.909962	0.630440	2376.620117
1390.844118	1.864021	0.630440	4044.918945
1390.845088	1.801853	0.630440	5792.716309
1390.845996	1.744058	0.630440	7376.320312
1390.846906	1.689390	0.630440	8913.665039
1390.847805	1.637117	0.630440	10385.432617
1390.848746	1.338402	0.630440	11644.869141
1390.849654	0.125087	0.630440	11758.448242
1390.850552	0.090970	0.630440	11840.139648
1390.851484	0.091110	0.630440	11925.053711
1390.852392	0.091091	0.630440	12007.764648
1390.853297	0.091051	0.630440	12090.166016
1390.854188	0.091025	0.630440	12171.269531
1390.855133	0.091201	0.630440	12257.455078
1390.856033	0.091099	0.630440	12339.443359
1390.856932	0.090981	0.630440	12421.235352
1390.857835	0.091084	0.630440	12503.484375
1391.886547	1.464950	0.622359	648.972839
1391.887443	1.909958	0.622359	2360.295654
1391.888338	1.863823	0.622359	4028.417480
1391.889304	1.802721	0.622359	5769.845703
1391.890203	1.745376	0.622359	7338.938477
1391.891095	1.691506	0.622359	8847.761719
1391.892024	1.638358	0.622359	10369.796875
1391.892957	1.367194	0.622359	11645.388672
1391.893871	0.132177	0.622359	11766.198242
1391.894759	0.090945	0.622359	11846.957031
1391.895694	0.091058	0.622359	11932.096680
1391.896606	0.091062	0.622359	12015.145508
1391.897498	0.091062	0.622359	12096.373047
1391.898417	0.091062	0.622359	12180.058594
1391.899324	0.091055	0.622359	12262.645508
1391.900218	0.091047	0.622359	12344.041992
1391.901102	0.091051	0.622359	12424.531250
1391.902032	0.091062	0.622359	12509.218750
1392.937293	1.456772	0.624039	638.066345
1392.938250	1.908706	0.624039	2464.697998
1392.939181	1.858945	0.624039	4195.375977
1392.940088	1.800359	0.624039	5828.301758
1392.941002	1.742486	0.624039	7420.934570
1392.941934	1.686471	0.624039	8992.725586
1392.942851	1.633748	0.624039	10490.872070
1392.943751	1.296412	0.624039	11657.643555
1392.944703	0.114668	0.624039	11766.807617
1392.945597	0.090970	0.624039	11848.134766
1392.946495	0.091011	0.624039	11929.862305
1392.947383	0.091099	0.624039	12010.757812
1392.948331	0.091058	0.624039	12097.081055
1392.949242	0.091044	0.624039	12180.021484
1392.950143	0.091117	0.624039	12262.118164
1392.951063	0.091095	0.624039	12345.925781
1392.951967	0.091128	0.624039	12428.305664
1392.952873	0.090945	0.624039	12510.702148
1393.981774	1.471498	0.628337	648.930542
1393.982695	1.909424	0.628337	2407.509766
1393.983608	1.861882	0.628337	4107.408203
1393.984504	1.804222	0.628337	5723.991699
1393.985456	1.744277	0.628337	7384.543945
1393.986380	1.688339	0.628337	8944.568359
1393.987303	1.635513	0.628337	10454.146484
1393.988201	1.307197	0.628337	11628.009766
1393.989164	0.113503	0.628337	11737.313477
1393.990057	0.090974	0.628337	11818.553711
1393.990945	0.091062	0.628337	11899.416992
1393.991872	0.091080	0.628337	11983.848633
1393.992794	0.091095	0.628337	12067.837891
1393.993702	0.091113	0.628337	12150.568359
1393.994592	0.091099	0.628337	12231.646484
1393.995551	0.091110	0.628337	12319.020508
1393.996462	0.091091	0.628337	12402.004883
1393.997354	0.091066	0.628337	12483.235352
1395.032139	1.469440	0.616264	642.145142
1395.033045	1.910112	0.616264	2372.707031
1395.033939	1.863036	0.616264	4038.261230
1395.034910	1.802197	0.616264	5788.194824
1395.035830	1.743757	0.616264	7392.451660
1395.036728	1.689467	0.616264	8909.592773
1395.037675	1.636084	0.616264	10458.963867
1395.038578	1.316807	0.616264	11648.040039
1395.039488	0.121593	0.616264	11758.689453
1395.040376	0.090956	0.616264	11839.458008
1395.041307	0.091190	0.616264	11924.356445
1395.042218	0.091088	0.616264	12007.336914
1395.043119	0.091055	0.616264	12089.376953
1395.044005	0.091139	0.616264	12170.125977
1395.044947	0.091154	0.616264	12255.992187
1395.045856	0.091095	0.616264	12338.797852
1395.046747	0.091077	0.616264	12419.947266
1395.047682	0.091135	0.616264	12505.159180
1396.076755	1.478716	0.632217	660.985962
1396.077654	1.909856	0.632217	2377.946289
1396.078593	1.861271	0.632217	4125.679687
1396.079512	1.802113	0.632217	5781.821289
1396.080443	1.743428	0.632217	7404.952637
1396.081339	1.688657	0.632217	8917.989258
1396.082300	1.634150	0.632217	10488.408203
1396.083201	1.305612	0.632217	11664.764648
1396.084092	0.120978	0.632217	11772.555664
1396.085024	0.090963	0.632217	11857.333008
1396.085940	0.091055	0.632217	11940.739258
1396.086847	0.091051	0.632217	12023.322266
1396.087735	0.091014	0.632217	12104.142578
1396.088661	0.091073	0.632217	12188.476562
1396.089578	0.091084	0.632217	12272.000977
1396.090477	0.091110	0.632217	12353.908203
1396.091425	0.091135	0.632217	12440.304687
1396.092327	0.091077	0.632217	12522.456055
1397.126859	1.459175	0.616353	639.118530
1397.127837	1.908149	0.616353	2505.288574
1397.128753	1.858963	0.616353	4208.099121
1397.129657	1.800476	0.616353	5835.729492
1397.130567	1.742219	0.616353	7421.148926
1397.131491	1.686834	0.616353	8979.783203
1397.132409	1.634073	0.616353	10479.862305
1397.133311	1.302935	0.616353	11655.109375
1397.134258	0.116642	0.616353	11765.569336
1397.135163	0.091055	0.616353	11847.973633
1397.136063	0.091025	0.616353	11929.896484
1397.136949	0.091018	0.616353	12010.538086
1397.137897	0.091132	0.616353	12096.930664
1397.138801	0.091102	0.616353	12179.287109
1397.139698	0.091040	0.616353	12260.950195
1397.140609	0.091088	0.616353	12343.930664
1397.141517	0.091073	0.616353	12426.625000
1397.142422	0.090992	0.616353	12508.972656
1398.172256	1.489695	0.615132	676.321411
1398.173152	1.909669	0.615132	2387.384766
1398.174047	1.863380	0.615132	4055.109863
1398.175007	1.803120	0.615132	5786.105469
1398.175909	1.744263	0.615132	7359.430664
1398.176839	1.688408	0.615132	8929.650391
1398.177743	1.636088	0.615132	10408.673828
1398.178700	1.288067	0.615132	11641.353516
1398.179617	0.114181	0.615132	11746.057617
1398.180507	0.090941	0.615132	11826.995117
1398.181436	0.091003	0.615132	11911.537109
1398.182352	0.091007	0.615132	11994.899414
1398.183250	0.091066	0.615132	12076.676758
1398.184137	0.091025	0.615132	12157.416016
1398.185077	0.091077	0.615132	12243.028320
1398.185970	0.091003	0.615132	12324.293945
1398.186874	0.091014	0.615132	12406.571289
1398.187807	0.091025	0.615132	12491.498047
1399.221599	1.484901	0.625183	666.720642
1399.222499	1.909874	0.625183	2385.607422
1399.223392	1.863102	0.625183	4049.357422
1399.224347	1.802289	0.625183	5770.543457
1399.225259	1.744343	0.625183	7361.384766
1399.226161	1.690019	0.625183	8885.782227
1399.227098	1.636897	0.625183	10419.554687
1399.228018	1.334000	0.625183	11646.834961
1399.228935	0.122538	0.625183	11759.202148
1399.229832	0.090850	0.625183	11840.694336
1399.230775	0.091095	0.625183	11926.596680
1399.231683	0.091150	0.625183	12009.360352
1399.232582	0.091069	0.625183	12091.231445
1399.233467	0.091077	0.625183	12171.833984
1399.234399	0.091176	0.625183	12256.809570
1399.235306	0.091165	0.625183	12339.496094
1399.236203	0.091139	0.625183	12421.248047
1399.237129	0.091040	0.625183	12505.550781
1400.267212	1.468140	0.609577	647.449585
1400.268104	1.909014	0.609577	2350.289795
1400.269082	1.859689	0.609577	4169.065430
1400.270023	1.799290	0.609577	5862.196777
1400.270920	1.741838	0.609577	7424.625977
1400.271878	1.685017	0.609577	9038.872070
1400.272777	1.633092	0.609577	10507.021484
1400.273676	1.284990	0.609577	11662.227539
1400.274610	0.116342	0.609577	11770.890625
1400.275527	0.090978	0.609577	11854.317383
1400.276432	0.091088	0.609577	11936.751953
1400.277321	0.091110	0.609577	12017.748047
1400.278273	0.091084	0.609577	12104.459961
1400.279178	0.091025	0.609577	12186.837891
1400.280094	0.091106	0.609577	12270.291016
1400.280980	0.091044	0.609577	12350.956055
1400.281920	0.091066	0.609577	12436.557617
1400.282822	0.091029	0.609577	12518.666016
1401.316428	1.456366	0.617461	637.888306
1401.317386	1.908673	0.617461	2466.397217
1401.318291	1.860099	0.617461	4149.786621
1401.319203	1.801476	0.617461	5792.732422
1401.320115	1.743047	0.617461	7382.391113
1401.321059	1.686984	0.617461	8974.903320
1401.321974	1.634374	0.617461	10470.355469
1401.322880	1.303012	0.617461	11650.883789
1401.323825	0.116884	0.617461	11761.338867
1401.324727	0.090956	0.617461	11843.380859
1401.325627	0.091102	0.617461	11925.373047
1401.326517	0.091029	0.617461	12006.388672
1401.327455	0.091132	0.617461	12091.870117
1401.328353	0.091066	0.617461	12173.647461
1401.329245	0.091055	0.617461	12254.868164
1401.330162	0.091117	0.617461	12338.422852
1401.331083	0.091205	0.617461	12422.422852
1401.331993	0.091099	0.617461	12505.322266
1402.362576	1.457655	0.613493	638.452881
1402.363472	1.910248	0.613493	2350.034912
1402.364414	1.862838	0.613493	4104.828125
1402.365318	1.803120	0.613493	5734.848633
1402.366244	1.744929	0.613493	7350.653320
1402.367139	1.690902	0.613493	8864.010742
1402.368093	1.636022	0.613493	10424.775391
1402.369005	1.308475	0.613493	11618.104492
1402.369935	0.120106	0.613493	11729.803711
1402.370823	0.090894	0.613493	11810.517578
1402.371765	0.091025	0.613493	11896.263672
1402.372667	0.091014	0.613493	11978.358398
1402.373558	0.091066	0.613493	12059.498047
1402.374497	0.091128	0.613493	12145.067383
1402.375401	0.091040	0.613493	12227.367187
1402.376294	0.091022	0.613493	12308.649414
1402.377219	0.091014	0.613493	12392.837891
1402.378124	0.090981	0.613493	12475.175781
1403.411156	1.478588	0.611724	662.407227
1403.412057	1.909830	0.611724	2383.164307
1403.412953	1.863157	0.611724	4052.552734
1403.413911	1.802358	0.611724	5779.211914
1403.414828	1.744200	0.611724	7378.643555
1403.415733	1.689598	0.611724	8907.730469
1403.416660	1.636838	0.611724	10425.080078
1403.417577	1.333795	0.611724	11648.169922
1403.418500	0.122351	0.611724	11761.099609
1403.419388	0.091073	0.611724	11841.972656
1403.420315	0.091132	0.611724	11926.451172
1403.421216	0.091110	0.611724	12008.541016
1403.422112	0.091069	0.611724	12090.138672
1403.423003	0.091062	0.611724	12171.275391
1403.423930	0.091154	0.611724	12255.774414
1403.424838	0.091099	0.611724	12338.492187
1403.425738	0.091110	0.611724	12420.491211
1403.426648	0.091033	0.611724	12503.331055
